X-channel SetVoltage(V) vs Field(mT)
-10.000000 	 -11.205000 	
-9.989995 	 -11.205000 	
-9.979990 	 -11.204000 	
-9.969985 	 -11.200000 	
-9.959980 	 -11.192000 	
-9.949975 	 -11.183000 	
-9.939970 	 -11.170000 	
-9.929965 	 -11.160000 	
-9.919960 	 -11.148000 	
-9.909955 	 -11.137000 	
-9.899950 	 -11.127000 	
-9.889945 	 -11.114000 	
-9.879940 	 -11.104000 	
-9.869935 	 -11.092000 	
-9.859930 	 -11.081000 	
-9.849925 	 -11.069000 	
-9.839920 	 -11.059000 	
-9.829915 	 -11.048000 	
-9.819910 	 -11.036000 	
-9.809905 	 -11.026000 	
-9.799900 	 -11.014000 	
-9.789895 	 -11.004000 	
-9.779890 	 -10.992000 	
-9.769885 	 -10.981000 	
-9.759880 	 -10.969000 	
-9.749875 	 -10.958000 	
-9.739870 	 -10.948000 	
-9.729865 	 -10.936000 	
-9.719860 	 -10.925000 	
-9.709855 	 -10.913000 	
-9.699850 	 -10.902000 	
-9.689845 	 -10.890000 	
-9.679840 	 -10.879000 	
-9.669835 	 -10.869000 	
-9.659830 	 -10.857000 	
-9.649825 	 -10.846000 	
-9.639820 	 -10.834000 	
-9.629815 	 -10.824000 	
-9.619810 	 -10.812000 	
-9.609805 	 -10.801000 	
-9.599800 	 -10.791000 	
-9.589795 	 -10.778000 	
-9.579790 	 -10.768000 	
-9.569785 	 -10.755000 	
-9.559780 	 -10.745000 	
-9.549775 	 -10.733000 	
-9.539770 	 -10.723000 	
-9.529765 	 -10.711000 	
-9.519760 	 -10.701000 	
-9.509755 	 -10.691000 	
-9.499750 	 -10.678000 	
-9.489745 	 -10.668000 	
-9.479740 	 -10.658000 	
-9.469735 	 -10.645000 	
-9.459730 	 -10.633000 	
-9.449725 	 -10.622000 	
-9.439720 	 -10.609000 	
-9.429715 	 -10.599000 	
-9.419710 	 -10.586000 	
-9.409705 	 -10.575000 	
-9.399700 	 -10.565000 	
-9.389695 	 -10.553000 	
-9.379690 	 -10.543000 	
-9.369685 	 -10.531000 	
-9.359680 	 -10.521000 	
-9.349675 	 -10.509000 	
-9.339670 	 -10.499000 	
-9.329665 	 -10.489000 	
-9.319660 	 -10.477000 	
-9.309655 	 -10.467000 	
-9.299650 	 -10.454000 	
-9.289645 	 -10.444000 	
-9.279640 	 -10.431000 	
-9.269635 	 -10.420000 	
-9.259630 	 -10.409000 	
-9.249625 	 -10.396000 	
-9.239620 	 -10.383000 	
-9.229615 	 -10.372000 	
-9.219610 	 -10.362000 	
-9.209605 	 -10.350000 	
-9.199600 	 -10.340000 	
-9.189595 	 -10.328000 	
-9.179590 	 -10.318000 	
-9.169585 	 -10.306000 	
-9.159580 	 -10.296000 	
-9.149575 	 -10.286000 	
-9.139570 	 -10.274000 	
-9.129565 	 -10.265000 	
-9.119560 	 -10.253000 	
-9.109555 	 -10.242000 	
-9.099550 	 -10.230000 	
-9.089545 	 -10.219000 	
-9.079540 	 -10.209000 	
-9.069535 	 -10.196000 	
-9.059530 	 -10.183000 	
-9.049525 	 -10.172000 	
-9.039520 	 -10.162000 	
-9.029515 	 -10.149000 	
-9.019510 	 -10.137000 	
-9.009505 	 -10.127000 	
-8.999500 	 -10.117000 	
-8.989495 	 -10.105000 	
-8.979490 	 -10.095000 	
-8.969485 	 -10.083000 	
-8.959480 	 -10.073000 	
-8.949475 	 -10.061000 	
-8.939470 	 -10.051000 	
-8.929465 	 -10.041000 	
-8.919460 	 -10.028000 	
-8.909455 	 -10.018000 	
-8.899450 	 -10.005000 	
-8.889445 	 -9.994000 	
-8.879440 	 -9.984000 	
-8.869435 	 -9.970000 	
-8.859430 	 -9.960000 	
-8.849425 	 -9.947000 	
-8.839420 	 -9.937000 	
-8.829415 	 -9.925000 	
-8.819410 	 -9.914000 	
-8.809405 	 -9.904000 	
-8.799400 	 -9.892000 	
-8.789395 	 -9.882000 	
-8.779390 	 -9.870000 	
-8.769385 	 -9.859000 	
-8.759380 	 -9.847000 	
-8.749375 	 -9.837000 	
-8.739370 	 -9.827000 	
-8.729365 	 -9.815000 	
-8.719360 	 -9.804000 	
-8.709355 	 -9.792000 	
-8.699350 	 -9.781000 	
-8.689345 	 -9.771000 	
-8.679340 	 -9.758000 	
-8.669335 	 -9.746000 	
-8.659330 	 -9.736000 	
-8.649325 	 -9.725000 	
-8.639320 	 -9.713000 	
-8.629315 	 -9.702000 	
-8.619310 	 -9.692000 	
-8.609305 	 -9.679000 	
-8.599300 	 -9.667000 	
-8.589295 	 -9.656000 	
-8.579290 	 -9.646000 	
-8.569285 	 -9.633000 	
-8.559280 	 -9.621000 	
-8.549275 	 -9.611000 	
-8.539270 	 -9.601000 	
-8.529265 	 -9.589000 	
-8.519260 	 -9.579000 	
-8.509255 	 -9.567000 	
-8.499250 	 -9.557000 	
-8.489245 	 -9.544000 	
-8.479240 	 -9.534000 	
-8.469235 	 -9.524000 	
-8.459230 	 -9.511000 	
-8.449225 	 -9.501000 	
-8.439220 	 -9.490000 	
-8.429215 	 -9.477000 	
-8.419210 	 -9.466000 	
-8.409205 	 -9.453000 	
-8.399200 	 -9.442000 	
-8.389195 	 -9.430000 	
-8.379190 	 -9.419000 	
-8.369185 	 -9.407000 	
-8.359180 	 -9.397000 	
-8.349175 	 -9.387000 	
-8.339170 	 -9.375000 	
-8.329165 	 -9.365000 	
-8.319160 	 -9.353000 	
-8.309155 	 -9.343000 	
-8.299150 	 -9.331000 	
-8.289145 	 -9.321000 	
-8.279140 	 -9.309000 	
-8.269135 	 -9.299000 	
-8.259130 	 -9.286000 	
-8.249125 	 -9.276000 	
-8.239120 	 -9.266000 	
-8.229115 	 -9.253000 	
-8.219110 	 -9.243000 	
-8.209105 	 -9.230000 	
-8.199100 	 -9.220000 	
-8.189095 	 -9.208000 	
-8.179090 	 -9.197000 	
-8.169085 	 -9.187000 	
-8.159080 	 -9.175000 	
-8.149075 	 -9.164000 	
-8.139070 	 -9.153000 	
-8.129065 	 -9.143000 	
-8.119060 	 -9.131000 	
-8.109055 	 -9.121000 	
-8.099050 	 -9.111000 	
-8.089045 	 -9.098000 	
-8.079040 	 -9.087000 	
-8.069035 	 -9.074000 	
-8.059030 	 -9.063000 	
-8.049025 	 -9.050000 	
-8.039020 	 -9.040000 	
-8.029015 	 -9.029000 	
-8.019010 	 -9.017000 	
-8.009005 	 -9.007000 	
-7.998999 	 -8.995000 	
-7.988994 	 -8.985000 	
-7.978989 	 -8.972000 	
-7.968984 	 -8.962000 	
-7.958979 	 -8.950000 	
-7.948974 	 -8.940000 	
-7.938969 	 -8.928000 	
-7.928964 	 -8.918000 	
-7.918959 	 -8.908000 	
-7.908954 	 -8.895000 	
-7.898949 	 -8.884000 	
-7.888944 	 -8.872000 	
-7.878939 	 -8.861000 	
-7.868934 	 -8.849000 	
-7.858929 	 -8.838000 	
-7.848924 	 -8.826000 	
-7.838919 	 -8.816000 	
-7.828914 	 -8.805000 	
-7.818909 	 -8.793000 	
-7.808904 	 -8.783000 	
-7.798899 	 -8.773000 	
-7.788894 	 -8.760000 	
-7.778889 	 -8.750000 	
-7.768884 	 -8.737000 	
-7.758879 	 -8.727000 	
-7.748874 	 -8.714000 	
-7.738869 	 -8.704000 	
-7.728864 	 -8.693000 	
-7.718859 	 -8.681000 	
-7.708854 	 -8.671000 	
-7.698849 	 -8.658000 	
-7.688844 	 -8.648000 	
-7.678839 	 -8.635000 	
-7.668834 	 -8.625000 	
-7.658829 	 -8.613000 	
-7.648824 	 -8.602000 	
-7.638819 	 -8.592000 	
-7.628814 	 -8.579000 	
-7.618809 	 -8.569000 	
-7.608804 	 -8.557000 	
-7.598799 	 -8.546000 	
-7.588794 	 -8.534000 	
-7.578789 	 -8.524000 	
-7.568784 	 -8.513000 	
-7.558779 	 -8.500000 	
-7.548774 	 -8.490000 	
-7.538769 	 -8.477000 	
-7.528764 	 -8.467000 	
-7.518759 	 -8.454000 	
-7.508754 	 -8.444000 	
-7.498749 	 -8.434000 	
-7.488744 	 -8.422000 	
-7.478739 	 -8.412000 	
-7.468734 	 -8.400000 	
-7.458729 	 -8.390000 	
-7.448724 	 -8.379000 	
-7.438719 	 -8.367000 	
-7.428714 	 -8.357000 	
-7.418709 	 -8.344000 	
-7.408704 	 -8.334000 	
-7.398699 	 -8.321000 	
-7.388694 	 -8.310000 	
-7.378689 	 -8.300000 	
-7.368684 	 -8.286000 	
-7.358679 	 -8.276000 	
-7.348674 	 -8.265000 	
-7.338669 	 -8.252000 	
-7.328664 	 -8.241000 	
-7.318659 	 -8.231000 	
-7.308654 	 -8.221000 	
-7.298649 	 -8.209000 	
-7.288644 	 -8.199000 	
-7.278639 	 -8.187000 	
-7.268634 	 -8.177000 	
-7.258629 	 -8.167000 	
-7.248624 	 -8.154000 	
-7.238619 	 -8.144000 	
-7.228614 	 -8.131000 	
-7.218609 	 -8.120000 	
-7.208604 	 -8.108000 	
-7.198599 	 -8.097000 	
-7.188594 	 -8.084000 	
-7.178589 	 -8.074000 	
-7.168584 	 -8.061000 	
-7.158579 	 -8.051000 	
-7.148574 	 -8.041000 	
-7.138569 	 -8.029000 	
-7.128564 	 -8.019000 	
-7.118559 	 -8.008000 	
-7.108554 	 -7.996000 	
-7.098549 	 -7.986000 	
-7.088544 	 -7.974000 	
-7.078539 	 -7.964000 	
-7.068534 	 -7.952000 	
-7.058529 	 -7.941000 	
-7.048524 	 -7.931000 	
-7.038519 	 -7.918000 	
-7.028514 	 -7.905000 	
-7.018509 	 -7.895000 	
-7.008504 	 -7.885000 	
-6.998499 	 -7.873000 	
-6.988494 	 -7.862000 	
-6.978489 	 -7.850000 	
-6.968484 	 -7.840000 	
-6.958479 	 -7.827000 	
-6.948474 	 -7.816000 	
-6.938469 	 -7.804000 	
-6.928464 	 -7.793000 	
-6.918459 	 -7.783000 	
-6.908454 	 -7.771000 	
-6.898449 	 -7.761000 	
-6.888444 	 -7.749000 	
-6.878439 	 -7.738000 	
-6.868434 	 -7.726000 	
-6.858429 	 -7.715000 	
-6.848424 	 -7.703000 	
-6.838419 	 -7.692000 	
-6.828414 	 -7.682000 	
-6.818409 	 -7.669000 	
-6.808404 	 -7.659000 	
-6.798399 	 -7.646000 	
-6.788394 	 -7.636000 	
-6.778389 	 -7.624000 	
-6.768384 	 -7.614000 	
-6.758379 	 -7.601000 	
-6.748374 	 -7.591000 	
-6.738369 	 -7.578000 	
-6.728364 	 -7.568000 	
-6.718359 	 -7.556000 	
-6.708354 	 -7.545000 	
-6.698349 	 -7.533000 	
-6.688344 	 -7.523000 	
-6.678339 	 -7.513000 	
-6.668334 	 -7.501000 	
-6.658329 	 -7.491000 	
-6.648324 	 -7.479000 	
-6.638319 	 -7.468000 	
-6.628314 	 -7.456000 	
-6.618309 	 -7.446000 	
-6.608304 	 -7.436000 	
-6.598299 	 -7.423000 	
-6.588294 	 -7.413000 	
-6.578289 	 -7.400000 	
-6.568284 	 -7.389000 	
-6.558279 	 -7.376000 	
-6.548274 	 -7.365000 	
-6.538269 	 -7.352000 	
-6.528264 	 -7.341000 	
-6.518259 	 -7.331000 	
-6.508254 	 -7.318000 	
-6.498249 	 -7.307000 	
-6.488244 	 -7.297000 	
-6.478239 	 -7.285000 	
-6.468234 	 -7.273000 	
-6.458229 	 -7.263000 	
-6.448224 	 -7.253000 	
-6.438219 	 -7.241000 	
-6.428214 	 -7.230000 	
-6.418209 	 -7.217000 	
-6.408204 	 -7.207000 	
-6.398199 	 -7.196000 	
-6.388194 	 -7.184000 	
-6.378189 	 -7.174000 	
-6.368184 	 -7.161000 	
-6.358179 	 -7.151000 	
-6.348174 	 -7.138000 	
-6.338169 	 -7.128000 	
-6.328164 	 -7.116000 	
-6.318159 	 -7.106000 	
-6.308154 	 -7.094000 	
-6.298149 	 -7.084000 	
-6.288144 	 -7.074000 	
-6.278139 	 -7.062000 	
-6.268134 	 -7.052000 	
-6.258129 	 -7.040000 	
-6.248124 	 -7.030000 	
-6.238119 	 -7.017000 	
-6.228114 	 -7.007000 	
-6.218109 	 -6.996000 	
-6.208104 	 -6.983000 	
-6.198099 	 -6.972000 	
-6.188094 	 -6.962000 	
-6.178089 	 -6.949000 	
-6.168084 	 -6.937000 	
-6.158079 	 -6.926000 	
-6.148074 	 -6.916000 	
-6.138069 	 -6.904000 	
-6.128064 	 -6.893000 	
-6.118059 	 -6.881000 	
-6.108054 	 -6.870000 	
-6.098049 	 -6.860000 	
-6.088044 	 -6.848000 	
-6.078039 	 -6.836000 	
-6.068034 	 -6.826000 	
-6.058029 	 -6.815000 	
-6.048024 	 -6.803000 	
-6.038019 	 -6.791000 	
-6.028014 	 -6.781000 	
-6.018009 	 -6.771000 	
-6.008004 	 -6.758000 	
-5.997999 	 -6.747000 	
-5.987994 	 -6.735000 	
-5.977989 	 -6.724000 	
-5.967984 	 -6.712000 	
-5.957979 	 -6.701000 	
-5.947974 	 -6.690000 	
-5.937969 	 -6.678000 	
-5.927964 	 -6.668000 	
-5.917959 	 -6.658000 	
-5.907954 	 -6.645000 	
-5.897949 	 -6.635000 	
-5.887944 	 -6.623000 	
-5.877939 	 -6.612000 	
-5.867934 	 -6.600000 	
-5.857929 	 -6.590000 	
-5.847924 	 -6.580000 	
-5.837919 	 -6.568000 	
-5.827914 	 -6.557000 	
-5.817909 	 -6.545000 	
-5.807904 	 -6.534000 	
-5.797899 	 -6.523000 	
-5.787894 	 -6.511000 	
-5.777889 	 -6.499000 	
-5.767884 	 -6.488000 	
-5.757879 	 -6.478000 	
-5.747874 	 -6.466000 	
-5.737869 	 -6.456000 	
-5.727864 	 -6.443000 	
-5.717859 	 -6.433000 	
-5.707854 	 -6.420000 	
-5.697849 	 -6.409000 	
-5.687844 	 -6.399000 	
-5.677839 	 -6.386000 	
-5.667834 	 -6.376000 	
-5.657829 	 -6.366000 	
-5.647824 	 -6.354000 	
-5.637819 	 -6.344000 	
-5.627814 	 -6.332000 	
-5.617809 	 -6.321000 	
-5.607804 	 -6.309000 	
-5.597799 	 -6.298000 	
-5.587794 	 -6.286000 	
-5.577789 	 -6.275000 	
-5.567784 	 -6.263000 	
-5.557779 	 -6.252000 	
-5.547774 	 -6.240000 	
-5.537769 	 -6.229000 	
-5.527764 	 -6.217000 	
-5.517759 	 -6.206000 	
-5.507754 	 -6.194000 	
-5.497749 	 -6.184000 	
-5.487744 	 -6.172000 	
-5.477739 	 -6.162000 	
-5.467734 	 -6.153000 	
-5.457729 	 -6.141000 	
-5.447724 	 -6.129000 	
-5.437719 	 -6.119000 	
-5.427714 	 -6.110000 	
-5.417709 	 -6.097000 	
-5.407704 	 -6.087000 	
-5.397699 	 -6.076000 	
-5.387694 	 -6.063000 	
-5.377689 	 -6.052000 	
-5.367684 	 -6.039000 	
-5.357679 	 -6.029000 	
-5.347674 	 -6.016000 	
-5.337669 	 -6.006000 	
-5.327664 	 -5.995000 	
-5.317659 	 -5.983000 	
-5.307654 	 -5.972000 	
-5.297649 	 -5.960000 	
-5.287644 	 -5.950000 	
-5.277639 	 -5.937000 	
-5.267634 	 -5.928000 	
-5.257629 	 -5.916000 	
-5.247624 	 -5.906000 	
-5.237619 	 -5.895000 	
-5.227614 	 -5.883000 	
-5.217609 	 -5.873000 	
-5.207604 	 -5.860000 	
-5.197599 	 -5.849000 	
-5.187594 	 -5.836000 	
-5.177589 	 -5.825000 	
-5.167584 	 -5.812000 	
-5.157579 	 -5.802000 	
-5.147574 	 -5.789000 	
-5.137569 	 -5.779000 	
-5.127564 	 -5.769000 	
-5.117559 	 -5.756000 	
-5.107554 	 -5.746000 	
-5.097549 	 -5.734000 	
-5.087544 	 -5.724000 	
-5.077539 	 -5.712000 	
-5.067534 	 -5.702000 	
-5.057529 	 -5.692000 	
-5.047524 	 -5.680000 	
-5.037519 	 -5.668000 	
-5.027514 	 -5.657000 	
-5.017509 	 -5.647000 	
-5.007504 	 -5.635000 	
-4.997499 	 -5.624000 	
-4.987494 	 -5.612000 	
-4.977489 	 -5.602000 	
-4.967484 	 -5.589000 	
-4.957479 	 -5.579000 	
-4.947474 	 -5.569000 	
-4.937469 	 -5.557000 	
-4.927464 	 -5.546000 	
-4.917459 	 -5.534000 	
-4.907454 	 -5.524000 	
-4.897449 	 -5.511000 	
-4.887444 	 -5.501000 	
-4.877439 	 -5.490000 	
-4.867434 	 -5.477000 	
-4.857429 	 -5.464000 	
-4.847424 	 -5.454000 	
-4.837419 	 -5.444000 	
-4.827414 	 -5.432000 	
-4.817409 	 -5.422000 	
-4.807404 	 -5.409000 	
-4.797399 	 -5.399000 	
-4.787394 	 -5.388000 	
-4.777389 	 -5.375000 	
-4.767384 	 -5.365000 	
-4.757379 	 -5.353000 	
-4.747374 	 -5.342000 	
-4.737369 	 -5.330000 	
-4.727364 	 -5.320000 	
-4.717359 	 -5.307000 	
-4.707354 	 -5.297000 	
-4.697349 	 -5.284000 	
-4.687344 	 -5.273000 	
-4.677339 	 -5.263000 	
-4.667334 	 -5.251000 	
-4.657329 	 -5.238000 	
-4.647324 	 -5.228000 	
-4.637319 	 -5.218000 	
-4.627314 	 -5.206000 	
-4.617309 	 -5.197000 	
-4.607304 	 -5.185000 	
-4.597299 	 -5.175000 	
-4.587294 	 -5.163000 	
-4.577289 	 -5.153000 	
-4.567284 	 -5.142000 	
-4.557279 	 -5.130000 	
-4.547274 	 -5.117000 	
-4.537269 	 -5.107000 	
-4.527264 	 -5.097000 	
-4.517259 	 -5.084000 	
-4.507254 	 -5.073000 	
-4.497249 	 -5.061000 	
-4.487244 	 -5.050000 	
-4.477239 	 -5.037000 	
-4.467234 	 -5.027000 	
-4.457229 	 -5.015000 	
-4.447224 	 -5.005000 	
-4.437219 	 -4.993000 	
-4.427214 	 -4.983000 	
-4.417209 	 -4.973000 	
-4.407204 	 -4.961000 	
-4.397199 	 -4.951000 	
-4.387194 	 -4.938000 	
-4.377189 	 -4.927000 	
-4.367184 	 -4.914000 	
-4.357179 	 -4.903000 	
-4.347174 	 -4.892000 	
-4.337169 	 -4.880000 	
-4.327164 	 -4.869000 	
-4.317159 	 -4.857000 	
-4.307154 	 -4.847000 	
-4.297149 	 -4.834000 	
-4.287144 	 -4.824000 	
-4.277139 	 -4.813000 	
-4.267134 	 -4.801000 	
-4.257129 	 -4.791000 	
-4.247124 	 -4.779000 	
-4.237119 	 -4.769000 	
-4.227114 	 -4.759000 	
-4.217109 	 -4.747000 	
-4.207104 	 -4.737000 	
-4.197099 	 -4.724000 	
-4.187094 	 -4.714000 	
-4.177089 	 -4.701000 	
-4.167084 	 -4.690000 	
-4.157079 	 -4.680000 	
-4.147074 	 -4.667000 	
-4.137069 	 -4.657000 	
-4.127064 	 -4.645000 	
-4.117059 	 -4.634000 	
-4.107054 	 -4.622000 	
-4.097049 	 -4.612000 	
-4.087044 	 -4.602000 	
-4.077039 	 -4.589000 	
-4.067034 	 -4.579000 	
-4.057029 	 -4.567000 	
-4.047024 	 -4.556000 	
-4.037019 	 -4.544000 	
-4.027014 	 -4.534000 	
-4.017009 	 -4.524000 	
-4.007004 	 -4.512000 	
-3.996998 	 -4.500000 	
-3.986993 	 -4.489000 	
-3.976988 	 -4.479000 	
-3.966983 	 -4.467000 	
-3.956978 	 -4.456000 	
-3.946973 	 -4.444000 	
-3.936968 	 -4.433000 	
-3.926963 	 -4.422000 	
-3.916958 	 -4.410000 	
-3.906953 	 -4.400000 	
-3.896948 	 -4.387000 	
-3.886943 	 -4.377000 	
-3.876938 	 -4.365000 	
-3.866933 	 -4.354000 	
-3.856928 	 -4.344000 	
-3.846923 	 -4.331000 	
-3.836918 	 -4.321000 	
-3.826913 	 -4.311000 	
-3.816908 	 -4.298000 	
-3.806903 	 -4.288000 	
-3.796898 	 -4.275000 	
-3.786893 	 -4.265000 	
-3.776888 	 -4.253000 	
-3.766883 	 -4.243000 	
-3.756878 	 -4.231000 	
-3.746873 	 -4.220000 	
-3.736868 	 -4.210000 	
-3.726863 	 -4.198000 	
-3.716858 	 -4.188000 	
-3.706853 	 -4.175000 	
-3.696848 	 -4.165000 	
-3.686843 	 -4.152000 	
-3.676838 	 -4.142000 	
-3.666833 	 -4.131000 	
-3.656828 	 -4.118000 	
-3.646823 	 -4.106000 	
-3.636818 	 -4.095000 	
-3.626813 	 -4.085000 	
-3.616808 	 -4.073000 	
-3.606803 	 -4.063000 	
-3.596798 	 -4.051000 	
-3.586793 	 -4.041000 	
-3.576788 	 -4.029000 	
-3.566783 	 -4.019000 	
-3.556778 	 -4.009000 	
-3.546773 	 -3.996000 	
-3.536768 	 -3.986000 	
-3.526763 	 -3.973000 	
-3.516758 	 -3.962000 	
-3.506753 	 -3.949000 	
-3.496748 	 -3.938000 	
-3.486743 	 -3.928000 	
-3.476738 	 -3.915000 	
-3.466733 	 -3.905000 	
-3.456728 	 -3.892000 	
-3.446723 	 -3.882000 	
-3.436718 	 -3.870000 	
-3.426713 	 -3.860000 	
-3.416708 	 -3.848000 	
-3.406703 	 -3.838000 	
-3.396698 	 -3.828000 	
-3.386693 	 -3.815000 	
-3.376688 	 -3.806000 	
-3.366683 	 -3.796000 	
-3.356678 	 -3.783000 	
-3.346673 	 -3.772000 	
-3.336668 	 -3.759000 	
-3.326663 	 -3.749000 	
-3.316658 	 -3.736000 	
-3.306653 	 -3.725000 	
-3.296648 	 -3.715000 	
-3.286643 	 -3.703000 	
-3.276638 	 -3.692000 	
-3.266633 	 -3.680000 	
-3.256628 	 -3.669000 	
-3.246623 	 -3.657000 	
-3.236618 	 -3.647000 	
-3.226613 	 -3.636000 	
-3.216608 	 -3.627000 	
-3.206603 	 -3.616000 	
-3.196598 	 -3.608000 	
-3.186593 	 -3.599000 	
-3.176588 	 -3.591000 	
-3.166583 	 -3.583000 	
-3.156578 	 -3.572000 	
-3.146573 	 -3.563000 	
-3.136568 	 -3.552000 	
-3.126563 	 -3.542000 	
-3.116558 	 -3.530000 	
-3.106553 	 -3.519000 	
-3.096548 	 -3.506000 	
-3.086543 	 -3.496000 	
-3.076538 	 -3.483000 	
-3.066533 	 -3.472000 	
-3.056528 	 -3.461000 	
-3.046523 	 -3.448000 	
-3.036518 	 -3.438000 	
-3.026513 	 -3.427000 	
-3.016508 	 -3.414000 	
-3.006503 	 -3.404000 	
-2.996498 	 -3.392000 	
-2.986493 	 -3.382000 	
-2.976488 	 -3.370000 	
-2.966483 	 -3.358000 	
-2.956478 	 -3.348000 	
-2.946473 	 -3.338000 	
-2.936468 	 -3.326000 	
-2.926463 	 -3.316000 	
-2.916458 	 -3.304000 	
-2.906453 	 -3.294000 	
-2.896448 	 -3.281000 	
-2.886443 	 -3.271000 	
-2.876438 	 -3.258000 	
-2.866433 	 -3.247000 	
-2.856428 	 -3.235000 	
-2.846423 	 -3.224000 	
-2.836418 	 -3.214000 	
-2.826413 	 -3.201000 	
-2.816408 	 -3.191000 	
-2.806403 	 -3.180000 	
-2.796398 	 -3.168000 	
-2.786393 	 -3.158000 	
-2.776388 	 -3.146000 	
-2.766383 	 -3.136000 	
-2.756378 	 -3.124000 	
-2.746373 	 -3.114000 	
-2.736368 	 -3.103000 	
-2.726363 	 -3.091000 	
-2.716358 	 -3.080000 	
-2.706353 	 -3.067000 	
-2.696348 	 -3.057000 	
-2.686343 	 -3.044000 	
-2.676338 	 -3.034000 	
-2.666333 	 -3.021000 	
-2.656328 	 -3.011000 	
-2.646323 	 -2.998000 	
-2.636318 	 -2.988000 	
-2.626313 	 -2.977000 	
-2.616308 	 -2.965000 	
-2.606303 	 -2.952000 	
-2.596298 	 -2.942000 	
-2.586293 	 -2.932000 	
-2.576288 	 -2.920000 	
-2.566283 	 -2.910000 	
-2.556278 	 -2.898000 	
-2.546273 	 -2.888000 	
-2.536268 	 -2.878000 	
-2.526263 	 -2.866000 	
-2.516258 	 -2.856000 	
-2.506253 	 -2.844000 	
-2.496248 	 -2.834000 	
-2.486243 	 -2.821000 	
-2.476238 	 -2.811000 	
-2.466233 	 -2.801000 	
-2.456228 	 -2.788000 	
-2.446223 	 -2.777000 	
-2.436218 	 -2.764000 	
-2.426213 	 -2.754000 	
-2.416208 	 -2.741000 	
-2.406203 	 -2.731000 	
-2.396198 	 -2.718000 	
-2.386193 	 -2.708000 	
-2.376188 	 -2.696000 	
-2.366183 	 -2.686000 	
-2.356178 	 -2.676000 	
-2.346173 	 -2.663000 	
-2.336168 	 -2.653000 	
-2.326163 	 -2.641000 	
-2.316158 	 -2.631000 	
-2.306153 	 -2.619000 	
-2.296148 	 -2.609000 	
-2.286143 	 -2.598000 	
-2.276138 	 -2.586000 	
-2.266133 	 -2.575000 	
-2.256128 	 -2.563000 	
-2.246123 	 -2.552000 	
-2.236118 	 -2.540000 	
-2.226113 	 -2.529000 	
-2.216108 	 -2.519000 	
-2.206103 	 -2.506000 	
-2.196098 	 -2.496000 	
-2.186093 	 -2.484000 	
-2.176088 	 -2.473000 	
-2.166083 	 -2.463000 	
-2.156078 	 -2.450000 	
-2.146073 	 -2.440000 	
-2.136068 	 -2.428000 	
-2.126063 	 -2.418000 	
-2.116058 	 -2.406000 	
-2.106053 	 -2.396000 	
-2.096048 	 -2.386000 	
-2.086043 	 -2.374000 	
-2.076038 	 -2.361000 	
-2.066033 	 -2.351000 	
-2.056028 	 -2.340000 	
-2.046023 	 -2.327000 	
-2.036018 	 -2.317000 	
-2.026013 	 -2.306000 	
-2.016008 	 -2.293000 	
-2.006003 	 -2.283000 	
-1.995998 	 -2.270000 	
-1.985993 	 -2.260000 	
-1.975988 	 -2.247000 	
-1.965983 	 -2.237000 	
-1.955978 	 -2.225000 	
-1.945973 	 -2.215000 	
-1.935968 	 -2.205000 	
-1.925963 	 -2.193000 	
-1.915958 	 -2.183000 	
-1.905953 	 -2.173000 	
-1.895948 	 -2.160000 	
-1.885943 	 -2.150000 	
-1.875938 	 -2.137000 	
-1.865933 	 -2.126000 	
-1.855928 	 -2.114000 	
-1.845923 	 -2.103000 	
-1.835918 	 -2.093000 	
-1.825913 	 -2.080000 	
-1.815908 	 -2.069000 	
-1.805903 	 -2.056000 	
-1.795898 	 -2.046000 	
-1.785893 	 -2.033000 	
-1.775888 	 -2.023000 	
-1.765883 	 -2.011000 	
-1.755878 	 -2.001000 	
-1.745873 	 -1.989000 	
-1.735868 	 -1.979000 	
-1.725863 	 -1.969000 	
-1.715858 	 -1.957000 	
-1.705853 	 -1.947000 	
-1.695848 	 -1.934000 	
-1.685843 	 -1.924000 	
-1.675838 	 -1.914000 	
-1.665833 	 -1.902000 	
-1.655828 	 -1.891000 	
-1.645823 	 -1.879000 	
-1.635818 	 -1.869000 	
-1.625813 	 -1.856000 	
-1.615808 	 -1.846000 	
-1.605803 	 -1.835000 	
-1.595798 	 -1.822000 	
-1.585793 	 -1.812000 	
-1.575788 	 -1.800000 	
-1.565783 	 -1.790000 	
-1.555778 	 -1.778000 	
-1.545773 	 -1.768000 	
-1.535768 	 -1.756000 	
-1.525763 	 -1.746000 	
-1.515758 	 -1.734000 	
-1.505753 	 -1.724000 	
-1.495748 	 -1.712000 	
-1.485743 	 -1.702000 	
-1.475738 	 -1.689000 	
-1.465733 	 -1.679000 	
-1.455728 	 -1.667000 	
-1.445723 	 -1.656000 	
-1.435718 	 -1.644000 	
-1.425713 	 -1.633000 	
-1.415708 	 -1.623000 	
-1.405703 	 -1.610000 	
-1.395698 	 -1.600000 	
-1.385693 	 -1.589000 	
-1.375688 	 -1.576000 	
-1.365683 	 -1.566000 	
-1.355678 	 -1.554000 	
-1.345673 	 -1.544000 	
-1.335668 	 -1.531000 	
-1.325663 	 -1.521000 	
-1.315658 	 -1.510000 	
-1.305653 	 -1.500000 	
-1.295648 	 -1.488000 	
-1.285643 	 -1.478000 	
-1.275638 	 -1.468000 	
-1.265633 	 -1.455000 	
-1.255628 	 -1.445000 	
-1.245623 	 -1.433000 	
-1.235618 	 -1.422000 	
-1.225613 	 -1.411000 	
-1.215608 	 -1.398000 	
-1.205603 	 -1.385000 	
-1.195598 	 -1.374000 	
-1.185593 	 -1.364000 	
-1.175588 	 -1.351000 	
-1.165583 	 -1.341000 	
-1.155578 	 -1.330000 	
-1.145573 	 -1.318000 	
-1.135568 	 -1.308000 	
-1.125563 	 -1.296000 	
-1.115558 	 -1.286000 	
-1.105553 	 -1.274000 	
-1.095548 	 -1.264000 	
-1.085543 	 -1.254000 	
-1.075538 	 -1.242000 	
-1.065533 	 -1.232000 	
-1.055528 	 -1.219000 	
-1.045523 	 -1.209000 	
-1.035518 	 -1.196000 	
-1.025513 	 -1.185000 	
-1.015508 	 -1.175000 	
-1.005503 	 -1.162000 	
-0.995498 	 -1.151000 	
-0.985493 	 -1.138000 	
-0.975488 	 -1.127000 	
-0.965483 	 -1.115000 	
-0.955478 	 -1.105000 	
-0.945473 	 -1.093000 	
-0.935468 	 -1.083000 	
-0.925463 	 -1.071000 	
-0.915458 	 -1.061000 	
-0.905453 	 -1.049000 	
-0.895448 	 -1.039000 	
-0.885443 	 -1.028000 	
-0.875438 	 -1.016000 	
-0.865433 	 -1.006000 	
-0.855428 	 -0.994000 	
-0.845423 	 -0.984000 	
-0.835418 	 -0.971000 	
-0.825413 	 -0.961000 	
-0.815408 	 -0.950000 	
-0.805403 	 -0.938000 	
-0.795398 	 -0.928000 	
-0.785393 	 -0.915000 	
-0.775388 	 -0.905000 	
-0.765383 	 -0.892000 	
-0.755378 	 -0.882000 	
-0.745373 	 -0.871000 	
-0.735368 	 -0.859000 	
-0.725363 	 -0.848000 	
-0.715358 	 -0.836000 	
-0.705353 	 -0.825000 	
-0.695348 	 -0.813000 	
-0.685343 	 -0.803000 	
-0.675338 	 -0.793000 	
-0.665333 	 -0.780000 	
-0.655328 	 -0.770000 	
-0.645323 	 -0.758000 	
-0.635318 	 -0.748000 	
-0.625313 	 -0.735000 	
-0.615308 	 -0.725000 	
-0.605303 	 -0.713000 	
-0.595298 	 -0.703000 	
-0.585293 	 -0.692000 	
-0.575288 	 -0.680000 	
-0.565283 	 -0.669000 	
-0.555278 	 -0.656000 	
-0.545273 	 -0.645000 	
-0.535268 	 -0.633000 	
-0.525263 	 -0.622000 	
-0.515258 	 -0.612000 	
-0.505253 	 -0.600000 	
-0.495248 	 -0.588000 	
-0.485243 	 -0.578000 	
-0.475238 	 -0.568000 	
-0.465233 	 -0.556000 	
-0.455228 	 -0.546000 	
-0.445223 	 -0.536000 	
-0.435218 	 -0.524000 	
-0.425213 	 -0.511000 	
-0.415208 	 -0.501000 	
-0.405203 	 -0.490000 	
-0.395198 	 -0.478000 	
-0.385193 	 -0.467000 	
-0.375188 	 -0.454000 	
-0.365183 	 -0.444000 	
-0.355178 	 -0.431000 	
-0.345173 	 -0.421000 	
-0.335168 	 -0.410000 	
-0.325163 	 -0.398000 	
-0.315158 	 -0.388000 	
-0.305153 	 -0.376000 	
-0.295148 	 -0.366000 	
-0.285143 	 -0.354000 	
-0.275138 	 -0.344000 	
-0.265133 	 -0.332000 	
-0.255128 	 -0.322000 	
-0.245123 	 -0.311000 	
-0.235118 	 -0.299000 	
-0.225113 	 -0.288000 	
-0.215108 	 -0.275000 	
-0.205103 	 -0.265000 	
-0.195098 	 -0.251000 	
-0.185093 	 -0.241000 	
-0.175088 	 -0.228000 	
-0.165083 	 -0.218000 	
-0.155078 	 -0.205000 	
-0.145073 	 -0.195000 	
-0.135068 	 -0.185000 	
-0.125063 	 -0.173000 	
-0.115058 	 -0.163000 	
-0.105053 	 -0.150000 	
-0.095048 	 -0.141000 	
-0.085043 	 -0.129000 	
-0.075038 	 -0.119000 	
-0.065033 	 -0.109000 	
-0.055028 	 -0.096000 	
-0.045023 	 -0.086000 	
-0.035018 	 -0.074000 	
-0.025013 	 -0.063000 	
-0.015008 	 -0.051000 	
-0.005003 	 -0.040000 	
0.005003 	 -0.030000 	
0.015008 	 -0.018000 	
0.025013 	 -0.007000 	
0.035018 	 0.005000 	
0.045023 	 0.016000 	
0.055028 	 0.029000 	
0.065033 	 0.040000 	
0.075038 	 0.053000 	
0.085043 	 0.063000 	
0.095048 	 0.075000 	
0.105053 	 0.086000 	
0.115058 	 0.098000 	
0.125063 	 0.108000 	
0.135068 	 0.120000 	
0.145073 	 0.130000 	
0.155078 	 0.140000 	
0.165083 	 0.153000 	
0.175088 	 0.163000 	
0.185093 	 0.176000 	
0.195098 	 0.187000 	
0.205103 	 0.200000 	
0.215108 	 0.211000 	
0.225113 	 0.222000 	
0.235118 	 0.235000 	
0.245123 	 0.248000 	
0.255128 	 0.258000 	
0.265133 	 0.269000 	
0.275138 	 0.281000 	
0.285143 	 0.291000 	
0.295148 	 0.304000 	
0.305153 	 0.314000 	
0.315158 	 0.326000 	
0.325163 	 0.336000 	
0.335168 	 0.346000 	
0.345173 	 0.358000 	
0.355178 	 0.368000 	
0.365183 	 0.380000 	
0.375188 	 0.390000 	
0.385193 	 0.402000 	
0.395198 	 0.413000 	
0.405203 	 0.425000 	
0.415208 	 0.435000 	
0.425213 	 0.446000 	
0.435218 	 0.458000 	
0.445223 	 0.469000 	
0.455228 	 0.482000 	
0.465233 	 0.493000 	
0.475238 	 0.506000 	
0.485243 	 0.517000 	
0.495248 	 0.527000 	
0.505253 	 0.539000 	
0.515258 	 0.549000 	
0.525263 	 0.561000 	
0.535268 	 0.572000 	
0.545273 	 0.584000 	
0.555278 	 0.594000 	
0.565283 	 0.604000 	
0.575288 	 0.616000 	
0.585293 	 0.626000 	
0.595298 	 0.639000 	
0.605303 	 0.649000 	
0.615308 	 0.662000 	
0.625313 	 0.672000 	
0.635318 	 0.683000 	
0.645323 	 0.696000 	
0.655328 	 0.706000 	
0.665333 	 0.719000 	
0.675338 	 0.729000 	
0.685343 	 0.741000 	
0.695348 	 0.752000 	
0.705353 	 0.764000 	
0.715358 	 0.775000 	
0.725363 	 0.785000 	
0.735368 	 0.797000 	
0.745373 	 0.807000 	
0.755378 	 0.817000 	
0.765383 	 0.829000 	
0.775388 	 0.839000 	
0.785393 	 0.852000 	
0.795398 	 0.862000 	
0.805403 	 0.875000 	
0.815408 	 0.885000 	
0.825413 	 0.896000 	
0.835418 	 0.908000 	
0.845423 	 0.919000 	
0.855428 	 0.932000 	
0.865433 	 0.942000 	
0.875438 	 0.955000 	
0.885443 	 0.965000 	
0.895448 	 0.978000 	
0.905453 	 0.988000 	
0.915458 	 0.998000 	
0.925463 	 1.010000 	
0.935468 	 1.021000 	
0.945473 	 1.033000 	
0.955478 	 1.043000 	
0.965483 	 1.055000 	
0.975488 	 1.065000 	
0.985493 	 1.077000 	
0.995498 	 1.088000 	
1.005503 	 1.100000 	
1.015508 	 1.111000 	
1.025513 	 1.121000 	
1.035518 	 1.134000 	
1.045523 	 1.144000 	
1.055528 	 1.154000 	
1.065533 	 1.166000 	
1.075538 	 1.177000 	
1.085543 	 1.189000 	
1.095548 	 1.200000 	
1.105553 	 1.212000 	
1.115558 	 1.223000 	
1.125563 	 1.236000 	
1.135568 	 1.246000 	
1.145573 	 1.259000 	
1.155578 	 1.268000 	
1.165583 	 1.278000 	
1.175588 	 1.291000 	
1.185593 	 1.301000 	
1.195598 	 1.313000 	
1.205603 	 1.323000 	
1.215608 	 1.333000 	
1.225613 	 1.346000 	
1.235618 	 1.356000 	
1.245623 	 1.368000 	
1.255628 	 1.379000 	
1.265633 	 1.391000 	
1.275638 	 1.402000 	
1.285643 	 1.412000 	
1.295648 	 1.425000 	
1.305653 	 1.436000 	
1.315658 	 1.449000 	
1.325663 	 1.460000 	
1.335668 	 1.472000 	
1.345673 	 1.482000 	
1.355678 	 1.493000 	
1.365683 	 1.505000 	
1.375688 	 1.514000 	
1.385693 	 1.526000 	
1.395698 	 1.536000 	
1.405703 	 1.549000 	
1.415708 	 1.559000 	
1.425713 	 1.572000 	
1.435718 	 1.582000 	
1.445723 	 1.595000 	
1.455728 	 1.605000 	
1.465733 	 1.616000 	
1.475738 	 1.628000 	
1.485743 	 1.639000 	
1.495748 	 1.652000 	
1.505753 	 1.662000 	
1.515758 	 1.672000 	
1.525763 	 1.685000 	
1.535768 	 1.697000 	
1.545773 	 1.707000 	
1.555778 	 1.717000 	
1.565783 	 1.729000 	
1.575788 	 1.739000 	
1.585793 	 1.751000 	
1.595798 	 1.761000 	
1.605803 	 1.773000 	
1.615808 	 1.784000 	
1.625813 	 1.795000 	
1.635818 	 1.808000 	
1.645823 	 1.818000 	
1.655828 	 1.831000 	
1.665833 	 1.841000 	
1.675838 	 1.854000 	
1.685843 	 1.865000 	
1.695848 	 1.875000 	
1.705853 	 1.888000 	
1.715858 	 1.898000 	
1.725863 	 1.910000 	
1.735868 	 1.921000 	
1.745873 	 1.933000 	
1.755878 	 1.943000 	
1.765883 	 1.953000 	
1.775888 	 1.965000 	
1.785893 	 1.975000 	
1.795898 	 1.987000 	
1.805903 	 1.997000 	
1.815908 	 2.009000 	
1.825913 	 2.019000 	
1.835918 	 2.031000 	
1.845923 	 2.042000 	
1.855928 	 2.054000 	
1.865933 	 2.064000 	
1.875938 	 2.074000 	
1.885943 	 2.087000 	
1.895948 	 2.097000 	
1.905953 	 2.110000 	
1.915958 	 2.121000 	
1.925963 	 2.131000 	
1.935968 	 2.143000 	
1.945973 	 2.154000 	
1.955978 	 2.166000 	
1.965983 	 2.176000 	
1.975988 	 2.188000 	
1.985993 	 2.198000 	
1.995998 	 2.208000 	
2.006003 	 2.221000 	
2.016008 	 2.231000 	
2.026013 	 2.243000 	
2.036018 	 2.254000 	
2.046023 	 2.266000 	
2.056028 	 2.276000 	
2.066033 	 2.287000 	
2.076038 	 2.299000 	
2.086043 	 2.311000 	
2.096048 	 2.322000 	
2.106053 	 2.333000 	
2.116058 	 2.345000 	
2.126063 	 2.356000 	
2.136068 	 2.369000 	
2.146073 	 2.380000 	
2.156078 	 2.390000 	
2.166083 	 2.403000 	
2.176088 	 2.413000 	
2.186093 	 2.425000 	
2.196098 	 2.435000 	
2.206103 	 2.447000 	
2.216108 	 2.457000 	
2.226113 	 2.467000 	
2.236118 	 2.479000 	
2.246123 	 2.489000 	
2.256128 	 2.502000 	
2.266133 	 2.512000 	
2.276138 	 2.525000 	
2.286143 	 2.536000 	
2.296148 	 2.547000 	
2.306153 	 2.560000 	
2.316158 	 2.570000 	
2.326163 	 2.583000 	
2.336168 	 2.593000 	
2.346173 	 2.606000 	
2.356178 	 2.616000 	
2.366183 	 2.626000 	
2.376188 	 2.638000 	
2.386193 	 2.648000 	
2.396198 	 2.660000 	
2.406203 	 2.670000 	
2.416208 	 2.680000 	
2.426213 	 2.692000 	
2.436218 	 2.702000 	
2.446223 	 2.715000 	
2.456228 	 2.726000 	
2.466233 	 2.739000 	
2.476238 	 2.749000 	
2.486243 	 2.760000 	
2.496248 	 2.772000 	
2.506253 	 2.783000 	
2.516258 	 2.795000 	
2.526263 	 2.806000 	
2.536268 	 2.819000 	
2.546273 	 2.829000 	
2.556278 	 2.839000 	
2.566283 	 2.851000 	
2.576288 	 2.861000 	
2.586293 	 2.873000 	
2.596298 	 2.883000 	
2.606303 	 2.895000 	
2.616308 	 2.906000 	
2.626313 	 2.918000 	
2.636318 	 2.928000 	
2.646323 	 2.939000 	
2.656328 	 2.951000 	
2.666333 	 2.962000 	
2.676338 	 2.975000 	
2.686343 	 2.986000 	
2.696348 	 2.998000 	
2.706353 	 3.009000 	
2.716358 	 3.019000 	
2.726363 	 3.031000 	
2.736368 	 3.042000 	
2.746373 	 3.054000 	
2.756378 	 3.064000 	
2.766383 	 3.076000 	
2.776388 	 3.086000 	
2.786393 	 3.096000 	
2.796398 	 3.108000 	
2.806403 	 3.118000 	
2.816408 	 3.129000 	
2.826413 	 3.141000 	
2.836418 	 3.154000 	
2.846423 	 3.164000 	
2.856428 	 3.175000 	
2.866433 	 3.187000 	
2.876438 	 3.198000 	
2.886443 	 3.210000 	
2.896448 	 3.221000 	
2.906453 	 3.233000 	
2.916458 	 3.243000 	
2.926463 	 3.254000 	
2.936468 	 3.266000 	
2.946473 	 3.277000 	
2.956478 	 3.289000 	
2.966483 	 3.299000 	
2.976488 	 3.312000 	
2.986493 	 3.322000 	
2.996498 	 3.335000 	
3.006503 	 3.345000 	
3.016508 	 3.355000 	
3.026513 	 3.367000 	
3.036518 	 3.378000 	
3.046523 	 3.390000 	
3.056528 	 3.400000 	
3.066533 	 3.413000 	
3.076538 	 3.423000 	
3.086543 	 3.434000 	
3.096548 	 3.447000 	
3.106553 	 3.457000 	
3.116558 	 3.470000 	
3.126563 	 3.481000 	
3.136568 	 3.493000 	
3.146573 	 3.503000 	
3.156578 	 3.516000 	
3.166583 	 3.527000 	
3.176588 	 3.539000 	
3.186593 	 3.549000 	
3.196598 	 3.559000 	
3.206603 	 3.571000 	
3.216608 	 3.581000 	
3.226613 	 3.593000 	
3.236618 	 3.603000 	
3.246623 	 3.615000 	
3.256628 	 3.625000 	
3.266633 	 3.635000 	
3.276638 	 3.648000 	
3.286643 	 3.658000 	
3.296648 	 3.670000 	
3.306653 	 3.681000 	
3.316658 	 3.693000 	
3.326663 	 3.704000 	
3.336668 	 3.717000 	
3.346673 	 3.727000 	
3.356678 	 3.740000 	
3.366683 	 3.751000 	
3.376688 	 3.761000 	
3.386693 	 3.774000 	
3.396698 	 3.784000 	
3.406703 	 3.795000 	
3.416708 	 3.804000 	
3.426713 	 3.814000 	
3.436718 	 3.822000 	
3.446723 	 3.832000 	
3.456728 	 3.840000 	
3.466733 	 3.849000 	
3.476738 	 3.860000 	
3.486743 	 3.870000 	
3.496748 	 3.881000 	
3.506753 	 3.892000 	
3.516758 	 3.904000 	
3.526763 	 3.914000 	
3.536768 	 3.924000 	
3.546773 	 3.937000 	
3.556778 	 3.947000 	
3.566783 	 3.959000 	
3.576788 	 3.970000 	
3.586793 	 3.982000 	
3.596798 	 3.993000 	
3.606803 	 4.003000 	
3.616808 	 4.015000 	
3.626813 	 4.026000 	
3.636818 	 4.038000 	
3.646823 	 4.048000 	
3.656828 	 4.058000 	
3.666833 	 4.071000 	
3.676838 	 4.082000 	
3.686843 	 4.094000 	
3.696848 	 4.104000 	
3.706853 	 4.117000 	
3.716858 	 4.127000 	
3.726863 	 4.137000 	
3.736868 	 4.149000 	
3.746873 	 4.159000 	
3.756878 	 4.170000 	
3.766883 	 4.182000 	
3.776888 	 4.195000 	
3.786893 	 4.205000 	
3.796898 	 4.216000 	
3.806903 	 4.229000 	
3.816908 	 4.242000 	
3.826913 	 4.252000 	
3.836918 	 4.262000 	
3.846923 	 4.274000 	
3.856928 	 4.284000 	
3.866933 	 4.294000 	
3.876938 	 4.307000 	
3.886943 	 4.317000 	
3.896948 	 4.330000 	
3.906953 	 4.341000 	
3.916958 	 4.354000 	
3.926963 	 4.364000 	
3.936968 	 4.377000 	
3.946973 	 4.387000 	
3.956978 	 4.397000 	
3.966983 	 4.409000 	
3.976988 	 4.420000 	
3.986993 	 4.432000 	
3.996998 	 4.442000 	
4.007004 	 4.454000 	
4.017009 	 4.465000 	
4.027014 	 4.475000 	
4.037019 	 4.487000 	
4.047024 	 4.497000 	
4.057029 	 4.510000 	
4.067034 	 4.520000 	
4.077039 	 4.533000 	
4.087044 	 4.543000 	
4.097049 	 4.554000 	
4.107054 	 4.567000 	
4.117059 	 4.577000 	
4.127064 	 4.589000 	
4.137069 	 4.600000 	
4.147074 	 4.612000 	
4.157079 	 4.622000 	
4.167084 	 4.632000 	
4.177089 	 4.644000 	
4.187094 	 4.654000 	
4.197099 	 4.667000 	
4.207104 	 4.677000 	
4.217109 	 4.690000 	
4.227114 	 4.700000 	
4.237119 	 4.712000 	
4.247124 	 4.723000 	
4.257129 	 4.733000 	
4.267134 	 4.746000 	
4.277139 	 4.756000 	
4.287144 	 4.769000 	
4.297149 	 4.779000 	
4.307154 	 4.792000 	
4.317159 	 4.802000 	
4.327164 	 4.813000 	
4.337169 	 4.825000 	
4.347174 	 4.835000 	
4.357179 	 4.845000 	
4.367184 	 4.857000 	
4.377189 	 4.867000 	
4.387194 	 4.880000 	
4.397199 	 4.890000 	
4.407204 	 4.902000 	
4.417209 	 4.913000 	
4.427214 	 4.925000 	
4.437219 	 4.936000 	
4.447224 	 4.948000 	
4.457229 	 4.958000 	
4.467234 	 4.968000 	
4.477239 	 4.981000 	
4.487244 	 4.991000 	
4.497249 	 5.004000 	
4.507254 	 5.014000 	
4.517259 	 5.025000 	
4.527264 	 5.037000 	
4.537269 	 5.049000 	
4.547274 	 5.060000 	
4.557279 	 5.070000 	
4.567284 	 5.082000 	
4.577289 	 5.092000 	
4.587294 	 5.103000 	
4.597299 	 5.115000 	
4.607304 	 5.125000 	
4.617309 	 5.138000 	
4.627314 	 5.149000 	
4.637319 	 5.161000 	
4.647324 	 5.172000 	
4.657329 	 5.182000 	
4.667334 	 5.195000 	
4.677339 	 5.205000 	
4.687344 	 5.218000 	
4.697349 	 5.228000 	
4.707354 	 5.241000 	
4.717359 	 5.251000 	
4.727364 	 5.264000 	
4.737369 	 5.275000 	
4.747374 	 5.285000 	
4.757379 	 5.297000 	
4.767384 	 5.308000 	
4.777389 	 5.320000 	
4.787394 	 5.330000 	
4.797399 	 5.342000 	
4.807404 	 5.353000 	
4.817409 	 5.365000 	
4.827414 	 5.375000 	
4.837419 	 5.388000 	
4.847424 	 5.398000 	
4.857429 	 5.408000 	
4.867434 	 5.420000 	
4.877439 	 5.430000 	
4.887444 	 5.440000 	
4.897449 	 5.453000 	
4.907454 	 5.465000 	
4.917459 	 5.476000 	
4.927464 	 5.486000 	
4.937469 	 5.499000 	
4.947474 	 5.509000 	
4.957479 	 5.522000 	
4.967484 	 5.533000 	
4.977489 	 5.545000 	
4.987494 	 5.555000 	
4.997499 	 5.565000 	
5.007504 	 5.577000 	
5.017509 	 5.590000 	
5.027514 	 5.600000 	
5.037519 	 5.611000 	
5.047524 	 5.624000 	
5.057529 	 5.634000 	
5.067534 	 5.646000 	
5.077539 	 5.657000 	
5.087544 	 5.669000 	
5.097549 	 5.679000 	
5.107554 	 5.692000 	
5.117559 	 5.702000 	
5.127564 	 5.715000 	
5.137569 	 5.725000 	
5.147574 	 5.738000 	
5.157579 	 5.748000 	
5.167584 	 5.760000 	
5.177589 	 5.771000 	
5.187594 	 5.781000 	
5.197599 	 5.793000 	
5.207604 	 5.803000 	
5.217609 	 5.815000 	
5.227614 	 5.826000 	
5.237619 	 5.838000 	
5.247624 	 5.849000 	
5.257629 	 5.859000 	
5.267634 	 5.871000 	
5.277639 	 5.881000 	
5.287644 	 5.893000 	
5.297649 	 5.904000 	
5.307654 	 5.916000 	
5.317659 	 5.926000 	
5.327664 	 5.937000 	
5.337669 	 5.949000 	
5.347674 	 5.961000 	
5.357679 	 5.971000 	
5.367684 	 5.981000 	
5.377689 	 5.994000 	
5.387694 	 6.004000 	
5.397699 	 6.016000 	
5.407704 	 6.026000 	
5.417709 	 6.038000 	
5.427714 	 6.049000 	
5.437719 	 6.062000 	
5.447724 	 6.073000 	
5.457729 	 6.084000 	
5.467734 	 6.097000 	
5.477739 	 6.107000 	
5.487744 	 6.119000 	
5.497749 	 6.130000 	
5.507754 	 6.142000 	
5.517759 	 6.152000 	
5.527764 	 6.164000 	
5.537769 	 6.174000 	
5.547774 	 6.186000 	
5.557779 	 6.197000 	
5.567784 	 6.208000 	
5.577789 	 6.221000 	
5.587794 	 6.231000 	
5.597799 	 6.243000 	
5.607804 	 6.254000 	
5.617809 	 6.266000 	
5.627814 	 6.276000 	
5.637819 	 6.286000 	
5.647824 	 6.299000 	
5.657829 	 6.311000 	
5.667834 	 6.321000 	
5.677839 	 6.332000 	
5.687844 	 6.344000 	
5.697849 	 6.354000 	
5.707854 	 6.366000 	
5.717859 	 6.376000 	
5.727864 	 6.388000 	
5.737869 	 6.399000 	
5.747874 	 6.409000 	
5.757879 	 6.422000 	
5.767884 	 6.432000 	
5.777889 	 6.445000 	
5.787894 	 6.455000 	
5.797899 	 6.468000 	
5.807904 	 6.478000 	
5.817909 	 6.488000 	
5.827914 	 6.500000 	
5.837919 	 6.510000 	
5.847924 	 6.523000 	
5.857929 	 6.533000 	
5.867934 	 6.546000 	
5.877939 	 6.557000 	
5.887944 	 6.569000 	
5.897949 	 6.579000 	
5.907954 	 6.589000 	
5.917959 	 6.602000 	
5.927964 	 6.612000 	
5.937969 	 6.625000 	
5.947974 	 6.635000 	
5.957979 	 6.648000 	
5.967984 	 6.658000 	
5.977989 	 6.671000 	
5.987994 	 6.681000 	
5.997999 	 6.693000 	
6.008004 	 6.703000 	
6.018009 	 6.716000 	
6.028014 	 6.726000 	
6.038019 	 6.738000 	
6.048024 	 6.748000 	
6.058029 	 6.758000 	
6.068034 	 6.771000 	
6.078039 	 6.781000 	
6.088044 	 6.791000 	
6.098049 	 6.804000 	
6.108054 	 6.816000 	
6.118059 	 6.826000 	
6.128064 	 6.836000 	
6.138069 	 6.848000 	
6.148074 	 6.859000 	
6.158079 	 6.871000 	
6.168084 	 6.882000 	
6.178089 	 6.894000 	
6.188094 	 6.904000 	
6.198099 	 6.916000 	
6.208104 	 6.926000 	
6.218109 	 6.939000 	
6.228114 	 6.949000 	
6.238119 	 6.959000 	
6.248124 	 6.972000 	
6.258129 	 6.983000 	
6.268134 	 6.996000 	
6.278139 	 7.006000 	
6.288144 	 7.019000 	
6.298149 	 7.029000 	
6.308154 	 7.039000 	
6.318159 	 7.051000 	
6.328164 	 7.062000 	
6.338169 	 7.072000 	
6.348174 	 7.084000 	
6.358179 	 7.097000 	
6.368184 	 7.107000 	
6.378189 	 7.118000 	
6.388194 	 7.130000 	
6.398199 	 7.141000 	
6.408204 	 7.153000 	
6.418209 	 7.163000 	
6.428214 	 7.175000 	
6.438219 	 7.186000 	
6.448224 	 7.198000 	
6.458229 	 7.208000 	
6.468234 	 7.221000 	
6.478239 	 7.231000 	
6.488244 	 7.241000 	
6.498249 	 7.254000 	
6.508254 	 7.264000 	
6.518259 	 7.276000 	
6.528264 	 7.286000 	
6.538269 	 7.298000 	
6.548274 	 7.309000 	
6.558279 	 7.321000 	
6.568284 	 7.331000 	
6.578289 	 7.344000 	
6.588294 	 7.354000 	
6.598299 	 7.365000 	
6.608304 	 7.377000 	
6.618309 	 7.388000 	
6.628314 	 7.400000 	
6.638319 	 7.410000 	
6.648324 	 7.422000 	
6.658329 	 7.432000 	
6.668334 	 7.444000 	
6.678339 	 7.454000 	
6.688344 	 7.465000 	
6.698349 	 7.477000 	
6.708354 	 7.488000 	
6.718359 	 7.500000 	
6.728364 	 7.511000 	
6.738369 	 7.523000 	
6.748374 	 7.534000 	
6.758379 	 7.547000 	
6.768384 	 7.557000 	
6.778389 	 7.570000 	
6.788394 	 7.581000 	
6.798399 	 7.592000 	
6.808404 	 7.605000 	
6.818409 	 7.615000 	
6.828414 	 7.628000 	
6.838419 	 7.638000 	
6.848424 	 7.650000 	
6.858429 	 7.660000 	
6.868434 	 7.670000 	
6.878439 	 7.683000 	
6.888444 	 7.693000 	
6.898449 	 7.706000 	
6.908454 	 7.717000 	
6.918459 	 7.729000 	
6.928464 	 7.740000 	
6.938469 	 7.750000 	
6.948474 	 7.762000 	
6.958479 	 7.772000 	
6.968484 	 7.785000 	
6.978489 	 7.795000 	
6.988494 	 7.807000 	
6.998499 	 7.818000 	
7.008504 	 7.830000 	
7.018509 	 7.840000 	
7.028514 	 7.850000 	
7.038519 	 7.862000 	
7.048524 	 7.872000 	
7.058529 	 7.882000 	
7.068534 	 7.895000 	
7.078539 	 7.905000 	
7.088544 	 7.919000 	
7.098549 	 7.930000 	
7.108554 	 7.943000 	
7.118559 	 7.953000 	
7.128564 	 7.963000 	
7.138569 	 7.976000 	
7.148574 	 7.986000 	
7.158579 	 7.998000 	
7.168584 	 8.009000 	
7.178589 	 8.021000 	
7.188594 	 8.032000 	
7.198599 	 8.044000 	
7.208604 	 8.055000 	
7.218609 	 8.067000 	
7.228614 	 8.077000 	
7.238619 	 8.090000 	
7.248624 	 8.100000 	
7.258629 	 8.112000 	
7.268634 	 8.122000 	
7.278639 	 8.132000 	
7.288644 	 8.144000 	
7.298649 	 8.155000 	
7.308654 	 8.167000 	
7.318659 	 8.178000 	
7.328664 	 8.190000 	
7.338669 	 8.200000 	
7.348674 	 8.212000 	
7.358679 	 8.223000 	
7.368684 	 8.235000 	
7.378689 	 8.245000 	
7.388694 	 8.255000 	
7.398699 	 8.268000 	
7.408704 	 8.278000 	
7.418709 	 8.290000 	
7.428714 	 8.301000 	
7.438719 	 8.311000 	
7.448724 	 8.323000 	
7.458729 	 8.336000 	
7.468734 	 8.346000 	
7.478739 	 8.357000 	
7.488744 	 8.369000 	
7.498749 	 8.380000 	
7.508754 	 8.392000 	
7.518759 	 8.403000 	
7.528764 	 8.415000 	
7.538769 	 8.425000 	
7.548774 	 8.436000 	
7.558779 	 8.448000 	
7.568784 	 8.458000 	
7.578789 	 8.469000 	
7.588794 	 8.481000 	
7.598799 	 8.493000 	
7.608804 	 8.504000 	
7.618809 	 8.514000 	
7.628814 	 8.527000 	
7.638819 	 8.539000 	
7.648824 	 8.549000 	
7.658829 	 8.559000 	
7.668834 	 8.571000 	
7.678839 	 8.581000 	
7.688844 	 8.593000 	
7.698849 	 8.604000 	
7.708854 	 8.616000 	
7.718859 	 8.626000 	
7.728864 	 8.636000 	
7.738869 	 8.649000 	
7.748874 	 8.659000 	
7.758879 	 8.672000 	
7.768884 	 8.682000 	
7.778889 	 8.695000 	
7.788894 	 8.705000 	
7.798899 	 8.716000 	
7.808904 	 8.729000 	
7.818909 	 8.739000 	
7.828914 	 8.752000 	
7.838919 	 8.762000 	
7.848924 	 8.774000 	
7.858929 	 8.784000 	
7.868934 	 8.796000 	
7.878939 	 8.806000 	
7.888944 	 8.816000 	
7.898949 	 8.829000 	
7.908954 	 8.839000 	
7.918959 	 8.852000 	
7.928964 	 8.863000 	
7.938969 	 8.875000 	
7.948974 	 8.885000 	
7.958979 	 8.898000 	
7.968984 	 8.908000 	
7.978989 	 8.920000 	
7.988994 	 8.931000 	
7.998999 	 8.943000 	
8.009005 	 8.954000 	
8.019010 	 8.967000 	
8.029015 	 8.977000 	
8.039020 	 8.987000 	
8.049025 	 9.000000 	
8.059030 	 9.010000 	
8.069035 	 9.022000 	
8.079040 	 9.032000 	
8.089045 	 9.044000 	
8.099050 	 9.054000 	
8.109055 	 9.065000 	
8.119060 	 9.077000 	
8.129065 	 9.088000 	
8.139070 	 9.101000 	
8.149075 	 9.111000 	
8.159080 	 9.124000 	
8.169085 	 9.134000 	
8.179090 	 9.144000 	
8.189095 	 9.157000 	
8.199100 	 9.169000 	
8.209105 	 9.179000 	
8.219110 	 9.190000 	
8.229115 	 9.202000 	
8.239120 	 9.212000 	
8.249125 	 9.222000 	
8.259130 	 9.234000 	
8.269135 	 9.245000 	
8.279140 	 9.257000 	
8.289145 	 9.267000 	
8.299150 	 9.279000 	
8.309155 	 9.289000 	
8.319160 	 9.302000 	
8.329165 	 9.313000 	
8.339170 	 9.323000 	
8.349175 	 9.336000 	
8.359180 	 9.347000 	
8.369185 	 9.360000 	
8.379190 	 9.371000 	
8.389195 	 9.383000 	
8.399200 	 9.393000 	
8.409205 	 9.404000 	
8.419210 	 9.416000 	
8.429215 	 9.426000 	
8.439220 	 9.436000 	
8.449225 	 9.448000 	
8.459230 	 9.458000 	
8.469235 	 9.470000 	
8.479240 	 9.480000 	
8.489245 	 9.492000 	
8.499250 	 9.502000 	
8.509255 	 9.514000 	
8.519260 	 9.524000 	
8.529265 	 9.537000 	
8.539270 	 9.547000 	
8.549275 	 9.557000 	
8.559280 	 9.570000 	
8.569285 	 9.580000 	
8.579290 	 9.593000 	
8.589295 	 9.603000 	
8.599300 	 9.616000 	
8.609305 	 9.626000 	
8.619310 	 9.639000 	
8.629315 	 9.649000 	
8.639320 	 9.661000 	
8.649325 	 9.672000 	
8.659330 	 9.682000 	
8.669335 	 9.694000 	
8.679340 	 9.704000 	
8.689345 	 9.716000 	
8.699350 	 9.726000 	
8.709355 	 9.739000 	
8.719360 	 9.749000 	
8.729365 	 9.762000 	
8.739370 	 9.772000 	
8.749375 	 9.783000 	
8.759380 	 9.795000 	
8.769385 	 9.806000 	
8.779390 	 9.819000 	
8.789395 	 9.829000 	
8.799400 	 9.841000 	
8.809405 	 9.851000 	
8.819410 	 9.864000 	
8.829415 	 9.874000 	
8.839420 	 9.887000 	
8.849425 	 9.897000 	
8.859430 	 9.908000 	
8.869435 	 9.920000 	
8.879440 	 9.930000 	
8.889445 	 9.943000 	
8.899450 	 9.953000 	
8.909455 	 9.965000 	
8.919460 	 9.975000 	
8.929465 	 9.985000 	
8.939470 	 9.998000 	
8.949475 	 10.009000 	
8.959480 	 10.022000 	
8.969485 	 10.032000 	
8.979490 	 10.042000 	
8.989495 	 10.055000 	
8.999500 	 10.065000 	
9.009505 	 10.077000 	
9.019510 	 10.087000 	
9.029515 	 10.100000 	
9.039520 	 10.110000 	
9.049525 	 10.120000 	
9.059530 	 10.133000 	
9.069535 	 10.145000 	
9.079540 	 10.155000 	
9.089545 	 10.165000 	
9.099550 	 10.177000 	
9.109555 	 10.187000 	
9.119560 	 10.198000 	
9.129565 	 10.210000 	
9.139570 	 10.221000 	
9.149575 	 10.234000 	
9.159580 	 10.245000 	
9.169585 	 10.258000 	
9.179590 	 10.268000 	
9.189595 	 10.278000 	
9.199600 	 10.291000 	
9.209605 	 10.301000 	
9.219610 	 10.314000 	
9.229615 	 10.324000 	
9.239620 	 10.337000 	
9.249625 	 10.347000 	
9.259630 	 10.357000 	
9.269635 	 10.370000 	
9.279640 	 10.380000 	
9.289645 	 10.392000 	
9.299650 	 10.402000 	
9.309655 	 10.415000 	
9.319660 	 10.425000 	
9.329665 	 10.437000 	
9.339670 	 10.447000 	
9.349675 	 10.459000 	
9.359680 	 10.470000 	
9.369685 	 10.482000 	
9.379690 	 10.493000 	
9.389695 	 10.504000 	
9.399700 	 10.516000 	
9.409705 	 10.527000 	
9.419710 	 10.539000 	
9.429715 	 10.549000 	
9.439720 	 10.561000 	
9.449725 	 10.572000 	
9.459730 	 10.582000 	
9.469735 	 10.594000 	
9.479740 	 10.605000 	
9.489745 	 10.617000 	
9.499750 	 10.627000 	
9.509755 	 10.639000 	
9.519760 	 10.649000 	
9.529765 	 10.660000 	
9.539770 	 10.672000 	
9.549775 	 10.684000 	
9.559780 	 10.695000 	
9.569785 	 10.705000 	
9.579790 	 10.718000 	
9.589795 	 10.728000 	
9.599800 	 10.741000 	
9.609805 	 10.751000 	
9.619810 	 10.764000 	
9.629815 	 10.774000 	
9.639820 	 10.787000 	
9.649825 	 10.797000 	
9.659830 	 10.810000 	
9.669835 	 10.820000 	
9.679840 	 10.830000 	
9.689845 	 10.843000 	
9.699850 	 10.853000 	
9.709855 	 10.865000 	
9.719860 	 10.876000 	
9.729865 	 10.888000 	
9.739870 	 10.898000 	
9.749875 	 10.908000 	
9.759880 	 10.921000 	
9.769885 	 10.931000 	
9.779890 	 10.944000 	
9.789895 	 10.955000 	
9.799900 	 10.967000 	
9.809905 	 10.978000 	
9.819910 	 10.988000 	
9.829915 	 11.000000 	
9.839920 	 11.010000 	
9.849925 	 11.023000 	
9.859930 	 11.033000 	
9.869935 	 11.043000 	
9.879940 	 11.056000 	
9.889945 	 11.068000 	
9.899950 	 11.078000 	
9.909955 	 11.088000 	
9.919960 	 11.101000 	
9.929965 	 11.111000 	
9.939970 	 11.122000 	
9.949975 	 11.134000 	
9.959980 	 11.145000 	
9.969985 	 11.157000 	
9.979990 	 11.168000 	
9.989995 	 11.181000 	
10.000000 	 11.191000 	
X-channel Current(A) vs Field(mT)
-4.012483 	 -11.205000 	
-4.008557 	 -11.205000 	
-4.004357 	 -11.204000 	
-4.000786 	 -11.200000 	
-3.996704 	 -11.192000 	
-3.991955 	 -11.183000 	
-3.988382 	 -11.170000 	
-3.984549 	 -11.160000 	
-3.980167 	 -11.148000 	
-3.976069 	 -11.137000 	
-3.972479 	 -11.127000 	
-3.968656 	 -11.114000 	
-3.964555 	 -11.104000 	
-3.960711 	 -11.092000 	
-3.956740 	 -11.081000 	
-3.952038 	 -11.069000 	
-3.948341 	 -11.059000 	
-3.944074 	 -11.048000 	
-3.940080 	 -11.036000 	
-3.936610 	 -11.026000 	
-3.932017 	 -11.014000 	
-3.928351 	 -11.004000 	
-3.924065 	 -10.992000 	
-3.920305 	 -10.981000 	
-3.916005 	 -10.969000 	
-3.912368 	 -10.958000 	
-3.907919 	 -10.948000 	
-3.904365 	 -10.936000 	
-3.899887 	 -10.925000 	
-3.896265 	 -10.913000 	
-3.891831 	 -10.902000 	
-3.887552 	 -10.890000 	
-3.884033 	 -10.879000 	
-3.880091 	 -10.869000 	
-3.876006 	 -10.857000 	
-3.872185 	 -10.846000 	
-3.867675 	 -10.834000 	
-3.863980 	 -10.824000 	
-3.859867 	 -10.812000 	
-3.855962 	 -10.801000 	
-3.851582 	 -10.791000 	
-3.847420 	 -10.778000 	
-3.843688 	 -10.768000 	
-3.839540 	 -10.755000 	
-3.835803 	 -10.745000 	
-3.831489 	 -10.733000 	
-3.827542 	 -10.723000 	
-3.823420 	 -10.711000 	
-3.819854 	 -10.701000 	
-3.815257 	 -10.691000 	
-3.811382 	 -10.678000 	
-3.807520 	 -10.668000 	
-3.803327 	 -10.658000 	
-3.799363 	 -10.645000 	
-3.795662 	 -10.633000 	
-3.791589 	 -10.622000 	
-3.787504 	 -10.609000 	
-3.783536 	 -10.599000 	
-3.779271 	 -10.586000 	
-3.775195 	 -10.575000 	
-3.771077 	 -10.565000 	
-3.767029 	 -10.553000 	
-3.763520 	 -10.543000 	
-3.759269 	 -10.531000 	
-3.755167 	 -10.521000 	
-3.751290 	 -10.509000 	
-3.747128 	 -10.499000 	
-3.742746 	 -10.489000 	
-3.739370 	 -10.477000 	
-3.735414 	 -10.467000 	
-3.730884 	 -10.454000 	
-3.727346 	 -10.444000 	
-3.723366 	 -10.431000 	
-3.719039 	 -10.420000 	
-3.715384 	 -10.409000 	
-3.711203 	 -10.396000 	
-3.706882 	 -10.383000 	
-3.703010 	 -10.372000 	
-3.699069 	 -10.362000 	
-3.694933 	 -10.350000 	
-3.691112 	 -10.340000 	
-3.686707 	 -10.328000 	
-3.682888 	 -10.318000 	
-3.678827 	 -10.306000 	
-3.674982 	 -10.296000 	
-3.670865 	 -10.286000 	
-3.667009 	 -10.274000 	
-3.662851 	 -10.265000 	
-3.658488 	 -10.253000 	
-3.654548 	 -10.242000 	
-3.651006 	 -10.230000 	
-3.646446 	 -10.219000 	
-3.642695 	 -10.209000 	
-3.639155 	 -10.196000 	
-3.634740 	 -10.183000 	
-3.630964 	 -10.172000 	
-3.626542 	 -10.162000 	
-3.622553 	 -10.149000 	
-3.618494 	 -10.137000 	
-3.614507 	 -10.127000 	
-3.610874 	 -10.117000 	
-3.606510 	 -10.105000 	
-3.602208 	 -10.095000 	
-3.598661 	 -10.083000 	
-3.594639 	 -10.073000 	
-3.590285 	 -10.061000 	
-3.586553 	 -10.051000 	
-3.582293 	 -10.041000 	
-3.578586 	 -10.028000 	
-3.574069 	 -10.018000 	
-3.570117 	 -10.005000 	
-3.566446 	 -9.994000 	
-3.562122 	 -9.984000 	
-3.558369 	 -9.970000 	
-3.554041 	 -9.960000 	
-3.550267 	 -9.947000 	
-3.546245 	 -9.937000 	
-3.542079 	 -9.925000 	
-3.537734 	 -9.914000 	
-3.533967 	 -9.904000 	
-3.530273 	 -9.892000 	
-3.525935 	 -9.882000 	
-3.521803 	 -9.870000 	
-3.517931 	 -9.859000 	
-3.513867 	 -9.847000 	
-3.509576 	 -9.837000 	
-3.506001 	 -9.827000 	
-3.501836 	 -9.815000 	
-3.497873 	 -9.804000 	
-3.494090 	 -9.792000 	
-3.490080 	 -9.781000 	
-3.485541 	 -9.771000 	
-3.481743 	 -9.758000 	
-3.477822 	 -9.746000 	
-3.473501 	 -9.736000 	
-3.469458 	 -9.725000 	
-3.465600 	 -9.713000 	
-3.461312 	 -9.702000 	
-3.457841 	 -9.692000 	
-3.453665 	 -9.679000 	
-3.449419 	 -9.667000 	
-3.445769 	 -9.656000 	
-3.441364 	 -9.646000 	
-3.437241 	 -9.633000 	
-3.433486 	 -9.621000 	
-3.429186 	 -9.611000 	
-3.424998 	 -9.601000 	
-3.421369 	 -9.589000 	
-3.417295 	 -9.579000 	
-3.413012 	 -9.567000 	
-3.409312 	 -9.557000 	
-3.405532 	 -9.544000 	
-3.401322 	 -9.534000 	
-3.397345 	 -9.524000 	
-3.392914 	 -9.511000 	
-3.389011 	 -9.501000 	
-3.384772 	 -9.490000 	
-3.381024 	 -9.477000 	
-3.376693 	 -9.466000 	
-3.373284 	 -9.453000 	
-3.369290 	 -9.442000 	
-3.365083 	 -9.430000 	
-3.360638 	 -9.419000 	
-3.357136 	 -9.407000 	
-3.353189 	 -9.397000 	
-3.348697 	 -9.387000 	
-3.344904 	 -9.375000 	
-3.340793 	 -9.365000 	
-3.336767 	 -9.353000 	
-3.332855 	 -9.343000 	
-3.328324 	 -9.331000 	
-3.324395 	 -9.321000 	
-3.321005 	 -9.309000 	
-3.316548 	 -9.299000 	
-3.312397 	 -9.286000 	
-3.308417 	 -9.276000 	
-3.304655 	 -9.266000 	
-3.300580 	 -9.253000 	
-3.296752 	 -9.243000 	
-3.292807 	 -9.230000 	
-3.288416 	 -9.220000 	
-3.284686 	 -9.208000 	
-3.280239 	 -9.197000 	
-3.276294 	 -9.187000 	
-3.272728 	 -9.175000 	
-3.268610 	 -9.164000 	
-3.264263 	 -9.153000 	
-3.260665 	 -9.143000 	
-3.256632 	 -9.131000 	
-3.252242 	 -9.121000 	
-3.247956 	 -9.111000 	
-3.244054 	 -9.098000 	
-3.240273 	 -9.087000 	
-3.236365 	 -9.074000 	
-3.231972 	 -9.063000 	
-3.228375 	 -9.050000 	
-3.223830 	 -9.040000 	
-3.220292 	 -9.029000 	
-3.215772 	 -9.017000 	
-3.211631 	 -9.007000 	
-3.208084 	 -8.995000 	
-3.203910 	 -8.985000 	
-3.200033 	 -8.972000 	
-3.195908 	 -8.962000 	
-3.191491 	 -8.950000 	
-3.188082 	 -8.940000 	
-3.183478 	 -8.928000 	
-3.179531 	 -8.918000 	
-3.175458 	 -8.908000 	
-3.171819 	 -8.895000 	
-3.167425 	 -8.884000 	
-3.163911 	 -8.872000 	
-3.159744 	 -8.861000 	
-3.155575 	 -8.849000 	
-3.151581 	 -8.838000 	
-3.147620 	 -8.826000 	
-3.143324 	 -8.816000 	
-3.139300 	 -8.805000 	
-3.135421 	 -8.793000 	
-3.131102 	 -8.783000 	
-3.127342 	 -8.773000 	
-3.123447 	 -8.760000 	
-3.119282 	 -8.750000 	
-3.114963 	 -8.737000 	
-3.111435 	 -8.727000 	
-3.107441 	 -8.714000 	
-3.102945 	 -8.704000 	
-3.099449 	 -8.693000 	
-3.095158 	 -8.681000 	
-3.090870 	 -8.671000 	
-3.087124 	 -8.658000 	
-3.082877 	 -8.648000 	
-3.078673 	 -8.635000 	
-3.074698 	 -8.625000 	
-3.070534 	 -8.613000 	
-3.066614 	 -8.602000 	
-3.062527 	 -8.592000 	
-3.058819 	 -8.579000 	
-3.054956 	 -8.569000 	
-3.050805 	 -8.557000 	
-3.047041 	 -8.546000 	
-3.042549 	 -8.534000 	
-3.038569 	 -8.524000 	
-3.034578 	 -8.513000 	
-3.030675 	 -8.500000 	
-3.026501 	 -8.490000 	
-3.022984 	 -8.477000 	
-3.018397 	 -8.467000 	
-3.014599 	 -8.454000 	
-3.010612 	 -8.444000 	
-3.006667 	 -8.434000 	
-3.002665 	 -8.422000 	
-2.998285 	 -8.412000 	
-2.994422 	 -8.400000 	
-2.990805 	 -8.390000 	
-2.986434 	 -8.379000 	
-2.982251 	 -8.367000 	
-2.978440 	 -8.357000 	
-2.974055 	 -8.344000 	
-2.969940 	 -8.334000 	
-2.966096 	 -8.321000 	
-2.962532 	 -8.310000 	
-2.957951 	 -8.300000 	
-2.954234 	 -8.286000 	
-2.950291 	 -8.276000 	
-2.946216 	 -8.265000 	
-2.942472 	 -8.252000 	
-2.938177 	 -8.241000 	
-2.934038 	 -8.231000 	
-2.930409 	 -8.221000 	
-2.926209 	 -8.209000 	
-2.921890 	 -8.199000 	
-2.918367 	 -8.187000 	
-2.914298 	 -8.177000 	
-2.909975 	 -8.167000 	
-2.905964 	 -8.154000 	
-2.902113 	 -8.144000 	
-2.897741 	 -8.131000 	
-2.893866 	 -8.120000 	
-2.890069 	 -8.108000 	
-2.886159 	 -8.097000 	
-2.881798 	 -8.084000 	
-2.878040 	 -8.074000 	
-2.873771 	 -8.061000 	
-2.869641 	 -8.051000 	
-2.866064 	 -8.041000 	
-2.861796 	 -8.029000 	
-2.857679 	 -8.019000 	
-2.854000 	 -8.008000 	
-2.849925 	 -7.996000 	
-2.845501 	 -7.986000 	
-2.841523 	 -7.974000 	
-2.837812 	 -7.964000 	
-2.833421 	 -7.952000 	
-2.829546 	 -7.941000 	
-2.825244 	 -7.931000 	
-2.821646 	 -7.918000 	
-2.817385 	 -7.905000 	
-2.813468 	 -7.895000 	
-2.809384 	 -7.885000 	
-2.805663 	 -7.873000 	
-2.801396 	 -7.862000 	
-2.797067 	 -7.850000 	
-2.793448 	 -7.840000 	
-2.788937 	 -7.827000 	
-2.785229 	 -7.816000 	
-2.780840 	 -7.804000 	
-2.777351 	 -7.793000 	
-2.772936 	 -7.783000 	
-2.768781 	 -7.771000 	
-2.765112 	 -7.761000 	
-2.760829 	 -7.749000 	
-2.756943 	 -7.738000 	
-2.752981 	 -7.726000 	
-2.748737 	 -7.715000 	
-2.744814 	 -7.703000 	
-2.740678 	 -7.692000 	
-2.736953 	 -7.682000 	
-2.732924 	 -7.669000 	
-2.728893 	 -7.659000 	
-2.724927 	 -7.646000 	
-2.720364 	 -7.636000 	
-2.716541 	 -7.624000 	
-2.712494 	 -7.614000 	
-2.708933 	 -7.601000 	
-2.704904 	 -7.591000 	
-2.700108 	 -7.578000 	
-2.696418 	 -7.568000 	
-2.692410 	 -7.556000 	
-2.688774 	 -7.545000 	
-2.684530 	 -7.533000 	
-2.680639 	 -7.523000 	
-2.676571 	 -7.513000 	
-2.672668 	 -7.501000 	
-2.668609 	 -7.491000 	
-2.664362 	 -7.479000 	
-2.660221 	 -7.468000 	
-2.656419 	 -7.456000 	
-2.652250 	 -7.446000 	
-2.648168 	 -7.436000 	
-2.643874 	 -7.423000 	
-2.640201 	 -7.413000 	
-2.636106 	 -7.400000 	
-2.632353 	 -7.389000 	
-2.628163 	 -7.376000 	
-2.623851 	 -7.365000 	
-2.619958 	 -7.352000 	
-2.616121 	 -7.341000 	
-2.612221 	 -7.331000 	
-2.608122 	 -7.318000 	
-2.603698 	 -7.307000 	
-2.600169 	 -7.297000 	
-2.595874 	 -7.285000 	
-2.592034 	 -7.273000 	
-2.587690 	 -7.263000 	
-2.583525 	 -7.253000 	
-2.579578 	 -7.241000 	
-2.575837 	 -7.230000 	
-2.571733 	 -7.217000 	
-2.567679 	 -7.207000 	
-2.563306 	 -7.196000 	
-2.559909 	 -7.184000 	
-2.555667 	 -7.174000 	
-2.551285 	 -7.161000 	
-2.547691 	 -7.151000 	
-2.543722 	 -7.138000 	
-2.539804 	 -7.128000 	
-2.535590 	 -7.116000 	
-2.531720 	 -7.106000 	
-2.527850 	 -7.094000 	
-2.523772 	 -7.084000 	
-2.519507 	 -7.074000 	
-2.515876 	 -7.062000 	
-2.511649 	 -7.052000 	
-2.507430 	 -7.040000 	
-2.503934 	 -7.030000 	
-2.499609 	 -7.017000 	
-2.495610 	 -7.007000 	
-2.491361 	 -6.996000 	
-2.487739 	 -6.983000 	
-2.483325 	 -6.972000 	
-2.479504 	 -6.962000 	
-2.475220 	 -6.949000 	
-2.471598 	 -6.937000 	
-2.467455 	 -6.926000 	
-2.463428 	 -6.916000 	
-2.459369 	 -6.904000 	
-2.455228 	 -6.893000 	
-2.451066 	 -6.881000 	
-2.446955 	 -6.870000 	
-2.443232 	 -6.860000 	
-2.439070 	 -6.848000 	
-2.435224 	 -6.836000 	
-2.431092 	 -6.826000 	
-2.427037 	 -6.815000 	
-2.423240 	 -6.803000 	
-2.419115 	 -6.791000 	
-2.415144 	 -6.781000 	
-2.411106 	 -6.771000 	
-2.406918 	 -6.758000 	
-2.402817 	 -6.747000 	
-2.399198 	 -6.735000 	
-2.394689 	 -6.724000 	
-2.391259 	 -6.712000 	
-2.387216 	 -6.701000 	
-2.382626 	 -6.690000 	
-2.378679 	 -6.678000 	
-2.375153 	 -6.668000 	
-2.371068 	 -6.658000 	
-2.366880 	 -6.645000 	
-2.362764 	 -6.635000 	
-2.359049 	 -6.623000 	
-2.355100 	 -6.612000 	
-2.350636 	 -6.600000 	
-2.346976 	 -6.590000 	
-2.342718 	 -6.580000 	
-2.338601 	 -6.568000 	
-2.334501 	 -6.557000 	
-2.330545 	 -6.545000 	
-2.326310 	 -6.534000 	
-2.322639 	 -6.523000 	
-2.318375 	 -6.511000 	
-2.314574 	 -6.499000 	
-2.310340 	 -6.488000 	
-2.306454 	 -6.478000 	
-2.302619 	 -6.466000 	
-2.298314 	 -6.456000 	
-2.294606 	 -6.443000 	
-2.290539 	 -6.433000 	
-2.286270 	 -6.420000 	
-2.282671 	 -6.409000 	
-2.278340 	 -6.399000 	
-2.274290 	 -6.386000 	
-2.270346 	 -6.376000 	
-2.266116 	 -6.366000 	
-2.262143 	 -6.354000 	
-2.257925 	 -6.344000 	
-2.254167 	 -6.332000 	
-2.250449 	 -6.321000 	
-2.245915 	 -6.309000 	
-2.242034 	 -6.298000 	
-2.238203 	 -6.286000 	
-2.233716 	 -6.275000 	
-2.230038 	 -6.263000 	
-2.226007 	 -6.252000 	
-2.221669 	 -6.240000 	
-2.217851 	 -6.229000 	
-2.213708 	 -6.217000 	
-2.210107 	 -6.206000 	
-2.205697 	 -6.194000 	
-2.201857 	 -6.184000 	
-2.197545 	 -6.172000 	
-2.194124 	 -6.162000 	
-2.189698 	 -6.153000 	
-2.185793 	 -6.141000 	
-2.181926 	 -6.129000 	
-2.177948 	 -6.119000 	
-2.173711 	 -6.110000 	
-2.169808 	 -6.097000 	
-2.165915 	 -6.087000 	
-2.161452 	 -6.076000 	
-2.157621 	 -6.063000 	
-2.153866 	 -6.052000 	
-2.149627 	 -6.039000 	
-2.145305 	 -6.029000 	
-2.141431 	 -6.016000 	
-2.137580 	 -6.006000 	
-2.133322 	 -5.995000 	
-2.129599 	 -5.983000 	
-2.125058 	 -5.972000 	
-2.121438 	 -5.960000 	
-2.117257 	 -5.950000 	
-2.113355 	 -5.937000 	
-2.109415 	 -5.928000 	
-2.105218 	 -5.916000 	
-2.101348 	 -5.906000 	
-2.097038 	 -5.895000 	
-2.092937 	 -5.883000 	
-2.088964 	 -5.873000 	
-2.085193 	 -5.860000 	
-2.080684 	 -5.849000 	
-2.077167 	 -5.836000 	
-2.072664 	 -5.825000 	
-2.068703 	 -5.812000 	
-2.065057 	 -5.802000 	
-2.060834 	 -5.789000 	
-2.056969 	 -5.779000 	
-2.053228 	 -5.769000 	
-2.048867 	 -5.756000 	
-2.044803 	 -5.746000 	
-2.040971 	 -5.734000 	
-2.037010 	 -5.724000 	
-2.032892 	 -5.712000 	
-2.029020 	 -5.702000 	
-2.024689 	 -5.692000 	
-2.020530 	 -5.680000 	
-2.017045 	 -5.668000 	
-2.012373 	 -5.657000 	
-2.008988 	 -5.647000 	
-2.004905 	 -5.635000 	
-2.000872 	 -5.624000 	
-1.996312 	 -5.612000 	
-1.992659 	 -5.602000 	
-1.988799 	 -5.589000 	
-1.984520 	 -5.579000 	
-1.980250 	 -5.569000 	
-1.976151 	 -5.557000 	
-1.972384 	 -5.546000 	
-1.968355 	 -5.534000 	
-1.964284 	 -5.524000 	
-1.960538 	 -5.511000 	
-1.956507 	 -5.501000 	
-1.952071 	 -5.490000 	
-1.948466 	 -5.477000 	
-1.944521 	 -5.464000 	
-1.940309 	 -5.454000 	
-1.935963 	 -5.444000 	
-1.932404 	 -5.432000 	
-1.927807 	 -5.422000 	
-1.924204 	 -5.409000 	
-1.920298 	 -5.399000 	
-1.916314 	 -5.388000 	
-1.911696 	 -5.375000 	
-1.908417 	 -5.365000 	
-1.903909 	 -5.353000 	
-1.899941 	 -5.342000 	
-1.895728 	 -5.330000 	
-1.891727 	 -5.320000 	
-1.887997 	 -5.307000 	
-1.883798 	 -5.297000 	
-1.880049 	 -5.284000 	
-1.875803 	 -5.273000 	
-1.871947 	 -5.263000 	
-1.867830 	 -5.251000 	
-1.863836 	 -5.238000 	
-1.859734 	 -5.228000 	
-1.855846 	 -5.218000 	
-1.851864 	 -5.206000 	
-1.847865 	 -5.197000 	
-1.843471 	 -5.185000 	
-1.839618 	 -5.175000 	
-1.835554 	 -5.163000 	
-1.831142 	 -5.153000 	
-1.827550 	 -5.142000 	
-1.823613 	 -5.130000 	
-1.819677 	 -5.117000 	
-1.815637 	 -5.107000 	
-1.811238 	 -5.097000 	
-1.807282 	 -5.084000 	
-1.803903 	 -5.073000 	
-1.799306 	 -5.061000 	
-1.795618 	 -5.050000 	
-1.791559 	 -5.037000 	
-1.787210 	 -5.027000 	
-1.783420 	 -5.015000 	
-1.779470 	 -5.005000 	
-1.775413 	 -4.993000 	
-1.771038 	 -4.983000 	
-1.767439 	 -4.973000 	
-1.763570 	 -4.961000 	
-1.759035 	 -4.951000 	
-1.755365 	 -4.938000 	
-1.751039 	 -4.927000 	
-1.747377 	 -4.914000 	
-1.743243 	 -4.903000 	
-1.739013 	 -4.892000 	
-1.735071 	 -4.880000 	
-1.731392 	 -4.869000 	
-1.726931 	 -4.857000 	
-1.723066 	 -4.847000 	
-1.719076 	 -4.834000 	
-1.715300 	 -4.824000 	
-1.710724 	 -4.813000 	
-1.706796 	 -4.801000 	
-1.703120 	 -4.791000 	
-1.699203 	 -4.779000 	
-1.694943 	 -4.769000 	
-1.690935 	 -4.759000 	
-1.686911 	 -4.747000 	
-1.682758 	 -4.737000 	
-1.678884 	 -4.724000 	
-1.675046 	 -4.714000 	
-1.670756 	 -4.701000 	
-1.666376 	 -4.690000 	
-1.662850 	 -4.680000 	
-1.658412 	 -4.667000 	
-1.654799 	 -4.657000 	
-1.650565 	 -4.645000 	
-1.646293 	 -4.634000 	
-1.642790 	 -4.622000 	
-1.638106 	 -4.612000 	
-1.634414 	 -4.602000 	
-1.630672 	 -4.589000 	
-1.626118 	 -4.579000 	
-1.622142 	 -4.567000 	
-1.618245 	 -4.556000 	
-1.614513 	 -4.544000 	
-1.610655 	 -4.534000 	
-1.606471 	 -4.524000 	
-1.602508 	 -4.512000 	
-1.598346 	 -4.500000 	
-1.594553 	 -4.489000 	
-1.590078 	 -4.479000 	
-1.586051 	 -4.467000 	
-1.582515 	 -4.456000 	
-1.577944 	 -4.444000 	
-1.574102 	 -4.433000 	
-1.570569 	 -4.422000 	
-1.566091 	 -4.410000 	
-1.561927 	 -4.400000 	
-1.558160 	 -4.387000 	
-1.554313 	 -4.377000 	
-1.549969 	 -4.365000 	
-1.545809 	 -4.354000 	
-1.541656 	 -4.344000 	
-1.538015 	 -4.331000 	
-1.533533 	 -4.321000 	
-1.529841 	 -4.311000 	
-1.526214 	 -4.298000 	
-1.521972 	 -4.288000 	
-1.517695 	 -4.275000 	
-1.513683 	 -4.265000 	
-1.510068 	 -4.253000 	
-1.505651 	 -4.243000 	
-1.501564 	 -4.231000 	
-1.497635 	 -4.220000 	
-1.494032 	 -4.210000 	
-1.489561 	 -4.198000 	
-1.485256 	 -4.188000 	
-1.481723 	 -4.175000 	
-1.477690 	 -4.165000 	
-1.473740 	 -4.152000 	
-1.469005 	 -4.142000 	
-1.465603 	 -4.131000 	
-1.461539 	 -4.118000 	
-1.457473 	 -4.106000 	
-1.453764 	 -4.095000 	
-1.449032 	 -4.085000 	
-1.445358 	 -4.073000 	
-1.441551 	 -4.063000 	
-1.437013 	 -4.051000 	
-1.433293 	 -4.041000 	
-1.429109 	 -4.029000 	
-1.425158 	 -4.019000 	
-1.421159 	 -4.009000 	
-1.417051 	 -3.996000 	
-1.412992 	 -3.986000 	
-1.409266 	 -3.973000 	
-1.405004 	 -3.962000 	
-1.401125 	 -3.949000 	
-1.397281 	 -3.938000 	
-1.393184 	 -3.928000 	
-1.389354 	 -3.915000 	
-1.384672 	 -3.905000 	
-1.381254 	 -3.892000 	
-1.377139 	 -3.882000 	
-1.372696 	 -3.870000 	
-1.368996 	 -3.860000 	
-1.365197 	 -3.848000 	
-1.361287 	 -3.838000 	
-1.357162 	 -3.828000 	
-1.353068 	 -3.815000 	
-1.349074 	 -3.806000 	
-1.344758 	 -3.796000 	
-1.340600 	 -3.783000 	
-1.336945 	 -3.772000 	
-1.332493 	 -3.759000 	
-1.328588 	 -3.749000 	
-1.324700 	 -3.736000 	
-1.320444 	 -3.725000 	
-1.316380 	 -3.715000 	
-1.312456 	 -3.703000 	
-1.308584 	 -3.692000 	
-1.304438 	 -3.680000 	
-1.300400 	 -3.669000 	
-1.296613 	 -3.657000 	
-1.292396 	 -3.647000 	
-1.288440 	 -3.636000 	
-1.284268 	 -3.627000 	
-1.280756 	 -3.616000 	
-1.276245 	 -3.608000 	
-1.272172 	 -3.599000 	
-1.268450 	 -3.591000 	
-1.264428 	 -3.583000 	
-1.260434 	 -3.572000 	
-1.256487 	 -3.563000 	
-1.252531 	 -3.552000 	
-1.248104 	 -3.542000 	
-1.244386 	 -3.530000 	
-1.240105 	 -3.519000 	
-1.235959 	 -3.506000 	
-1.232239 	 -3.496000 	
-1.228605 	 -3.483000 	
-1.223936 	 -3.472000 	
-1.220241 	 -3.461000 	
-1.216170 	 -3.448000 	
-1.211950 	 -3.438000 	
-1.207869 	 -3.427000 	
-1.204065 	 -3.414000 	
-1.199784 	 -3.404000 	
-1.195729 	 -3.392000 	
-1.191948 	 -3.382000 	
-1.187924 	 -3.370000 	
-1.183731 	 -3.358000 	
-1.179616 	 -3.348000 	
-1.175613 	 -3.338000 	
-1.171979 	 -3.326000 	
-1.167646 	 -3.316000 	
-1.163615 	 -3.304000 	
-1.159672 	 -3.294000 	
-1.155391 	 -3.281000 	
-1.151982 	 -3.271000 	
-1.147487 	 -3.258000 	
-1.143463 	 -3.247000 	
-1.139801 	 -3.235000 	
-1.135672 	 -3.224000 	
-1.131505 	 -3.214000 	
-1.127278 	 -3.201000 	
-1.123172 	 -3.191000 	
-1.119454 	 -3.180000 	
-1.115687 	 -3.168000 	
-1.111347 	 -3.158000 	
-1.107426 	 -3.146000 	
-1.103153 	 -3.136000 	
-1.099288 	 -3.124000 	
-1.095122 	 -3.114000 	
-1.091485 	 -3.103000 	
-1.087519 	 -3.091000 	
-1.083233 	 -3.080000 	
-1.079244 	 -3.067000 	
-1.075395 	 -3.057000 	
-1.071596 	 -3.044000 	
-1.067174 	 -3.034000 	
-1.063176 	 -3.021000 	
-1.058990 	 -3.011000 	
-1.055050 	 -2.998000 	
-1.050827 	 -2.988000 	
-1.046955 	 -2.977000 	
-1.043174 	 -2.965000 	
-1.039009 	 -2.952000 	
-1.035240 	 -2.942000 	
-1.031258 	 -2.932000 	
-1.027156 	 -2.920000 	
-1.022623 	 -2.910000 	
-1.019113 	 -2.898000 	
-1.014424 	 -2.888000 	
-1.010924 	 -2.878000 	
-1.006841 	 -2.866000 	
-1.002881 	 -2.856000 	
-0.998676 	 -2.844000 	
-0.994664 	 -2.834000 	
-0.990726 	 -2.821000 	
-0.986622 	 -2.811000 	
-0.982430 	 -2.801000 	
-0.978810 	 -2.788000 	
-0.974538 	 -2.777000 	
-0.970593 	 -2.764000 	
-0.967093 	 -2.754000 	
-0.962517 	 -2.741000 	
-0.958446 	 -2.731000 	
-0.954274 	 -2.718000 	
-0.950498 	 -2.708000 	
-0.946602 	 -2.696000 	
-0.942709 	 -2.686000 	
-0.938294 	 -2.676000 	
-0.934637 	 -2.663000 	
-0.930234 	 -2.653000 	
-0.926603 	 -2.641000 	
-0.922253 	 -2.631000 	
-0.918594 	 -2.619000 	
-0.914451 	 -2.609000 	
-0.909996 	 -2.598000 	
-0.906475 	 -2.586000 	
-0.902121 	 -2.575000 	
-0.898078 	 -2.563000 	
-0.894379 	 -2.552000 	
-0.890264 	 -2.540000 	
-0.886066 	 -2.529000 	
-0.882458 	 -2.519000 	
-0.878373 	 -2.506000 	
-0.874038 	 -2.496000 	
-0.870269 	 -2.484000 	
-0.866034 	 -2.473000 	
-0.861640 	 -2.463000 	
-0.858278 	 -2.450000 	
-0.854029 	 -2.440000 	
-0.849656 	 -2.428000 	
-0.845642 	 -2.418000 	
-0.841732 	 -2.406000 	
-0.838176 	 -2.396000 	
-0.833969 	 -2.386000 	
-0.830006 	 -2.374000 	
-0.825628 	 -2.361000 	
-0.821885 	 -2.351000 	
-0.817566 	 -2.340000 	
-0.813437 	 -2.327000 	
-0.810086 	 -2.317000 	
-0.805521 	 -2.306000 	
-0.801600 	 -2.293000 	
-0.797379 	 -2.283000 	
-0.793692 	 -2.270000 	
-0.789310 	 -2.260000 	
-0.785609 	 -2.247000 	
-0.781467 	 -2.237000 	
-0.777438 	 -2.225000 	
-0.773828 	 -2.215000 	
-0.769502 	 -2.205000 	
-0.765480 	 -2.193000 	
-0.761407 	 -2.183000 	
-0.757105 	 -2.173000 	
-0.753497 	 -2.160000 	
-0.748872 	 -2.150000 	
-0.745336 	 -2.137000 	
-0.740895 	 -2.126000 	
-0.737044 	 -2.114000 	
-0.733018 	 -2.103000 	
-0.729262 	 -2.093000 	
-0.725040 	 -2.080000 	
-0.721165 	 -2.069000 	
-0.717365 	 -2.056000 	
-0.712918 	 -2.046000 	
-0.709118 	 -2.033000 	
-0.705029 	 -2.023000 	
-0.701138 	 -2.011000 	
-0.697375 	 -2.001000 	
-0.692638 	 -1.989000 	
-0.689168 	 -1.979000 	
-0.684954 	 -1.969000 	
-0.680799 	 -1.957000 	
-0.676925 	 -1.947000 	
-0.673188 	 -1.934000 	
-0.668666 	 -1.924000 	
-0.664800 	 -1.914000 	
-0.660804 	 -1.902000 	
-0.657231 	 -1.891000 	
-0.652882 	 -1.879000 	
-0.648673 	 -1.869000 	
-0.644623 	 -1.856000 	
-0.640997 	 -1.846000 	
-0.636524 	 -1.835000 	
-0.632761 	 -1.822000 	
-0.628660 	 -1.812000 	
-0.625082 	 -1.800000 	
-0.620869 	 -1.790000 	
-0.616559 	 -1.778000 	
-0.612455 	 -1.768000 	
-0.608878 	 -1.756000 	
-0.604407 	 -1.746000 	
-0.600677 	 -1.734000 	
-0.596492 	 -1.724000 	
-0.592451 	 -1.712000 	
-0.588689 	 -1.702000 	
-0.584618 	 -1.689000 	
-0.580189 	 -1.679000 	
-0.576394 	 -1.667000 	
-0.572704 	 -1.656000 	
-0.568341 	 -1.644000 	
-0.564576 	 -1.633000 	
-0.560475 	 -1.623000 	
-0.556055 	 -1.610000 	
-0.552186 	 -1.600000 	
-0.548323 	 -1.589000 	
-0.543962 	 -1.576000 	
-0.540106 	 -1.566000 	
-0.536047 	 -1.554000 	
-0.532334 	 -1.544000 	
-0.528181 	 -1.531000 	
-0.524098 	 -1.521000 	
-0.520182 	 -1.510000 	
-0.516417 	 -1.500000 	
-0.512208 	 -1.488000 	
-0.508064 	 -1.478000 	
-0.503991 	 -1.468000 	
-0.499771 	 -1.455000 	
-0.496364 	 -1.445000 	
-0.492145 	 -1.433000 	
-0.488238 	 -1.422000 	
-0.483723 	 -1.411000 	
-0.480213 	 -1.398000 	
-0.476142 	 -1.385000 	
-0.471868 	 -1.374000 	
-0.468070 	 -1.364000 	
-0.463644 	 -1.351000 	
-0.460078 	 -1.341000 	
-0.455593 	 -1.330000 	
-0.451417 	 -1.318000 	
-0.447930 	 -1.308000 	
-0.443893 	 -1.296000 	
-0.439429 	 -1.286000 	
-0.435547 	 -1.274000 	
-0.431497 	 -1.264000 	
-0.427402 	 -1.254000 	
-0.423182 	 -1.242000 	
-0.419642 	 -1.232000 	
-0.415751 	 -1.219000 	
-0.411736 	 -1.209000 	
-0.407553 	 -1.196000 	
-0.403379 	 -1.185000 	
-0.399217 	 -1.175000 	
-0.395541 	 -1.162000 	
-0.391358 	 -1.151000 	
-0.386894 	 -1.138000 	
-0.383567 	 -1.127000 	
-0.379096 	 -1.115000 	
-0.375058 	 -1.105000 	
-0.371232 	 -1.093000 	
-0.367323 	 -1.083000 	
-0.363076 	 -1.071000 	
-0.359424 	 -1.061000 	
-0.354890 	 -1.049000 	
-0.351048 	 -1.039000 	
-0.346743 	 -1.028000 	
-0.342605 	 -1.016000 	
-0.339130 	 -1.006000 	
-0.334532 	 -0.994000 	
-0.330525 	 -0.984000 	
-0.326854 	 -0.971000 	
-0.322972 	 -0.961000 	
-0.318433 	 -0.950000 	
-0.314776 	 -0.938000 	
-0.310825 	 -0.928000 	
-0.306585 	 -0.915000 	
-0.302830 	 -0.905000 	
-0.298518 	 -0.892000 	
-0.294515 	 -0.882000 	
-0.290814 	 -0.871000 	
-0.286740 	 -0.859000 	
-0.282417 	 -0.848000 	
-0.278589 	 -0.836000 	
-0.274436 	 -0.825000 	
-0.270232 	 -0.813000 	
-0.266554 	 -0.803000 	
-0.262700 	 -0.793000 	
-0.258428 	 -0.780000 	
-0.254591 	 -0.770000 	
-0.250265 	 -0.758000 	
-0.246066 	 -0.748000 	
-0.242460 	 -0.735000 	
-0.238164 	 -0.725000 	
-0.233911 	 -0.713000 	
-0.230298 	 -0.703000 	
-0.226068 	 -0.692000 	
-0.222390 	 -0.680000 	
-0.217812 	 -0.669000 	
-0.214431 	 -0.656000 	
-0.209796 	 -0.645000 	
-0.205735 	 -0.633000 	
-0.201923 	 -0.622000 	
-0.197621 	 -0.612000 	
-0.193962 	 -0.600000 	
-0.189876 	 -0.588000 	
-0.186053 	 -0.578000 	
-0.181781 	 -0.568000 	
-0.178188 	 -0.556000 	
-0.173985 	 -0.546000 	
-0.169716 	 -0.536000 	
-0.165713 	 -0.524000 	
-0.161679 	 -0.511000 	
-0.157854 	 -0.501000 	
-0.153448 	 -0.490000 	
-0.149780 	 -0.478000 	
-0.145468 	 -0.467000 	
-0.141661 	 -0.454000 	
-0.137377 	 -0.444000 	
-0.133360 	 -0.431000 	
-0.129394 	 -0.421000 	
-0.125807 	 -0.410000 	
-0.121689 	 -0.398000 	
-0.117394 	 -0.388000 	
-0.113323 	 -0.376000 	
-0.109339 	 -0.366000 	
-0.105628 	 -0.354000 	
-0.101323 	 -0.344000 	
-0.097287 	 -0.332000 	
-0.093585 	 -0.322000 	
-0.089073 	 -0.311000 	
-0.085595 	 -0.299000 	
-0.081316 	 -0.288000 	
-0.077126 	 -0.275000 	
-0.073193 	 -0.265000 	
-0.068802 	 -0.251000 	
-0.065288 	 -0.241000 	
-0.061539 	 -0.228000 	
-0.057164 	 -0.218000 	
-0.052979 	 -0.205000 	
-0.049312 	 -0.195000 	
-0.045484 	 -0.185000 	
-0.041196 	 -0.173000 	
-0.037088 	 -0.163000 	
-0.033005 	 -0.150000 	
-0.029222 	 -0.141000 	
-0.024896 	 -0.129000 	
-0.021297 	 -0.119000 	
-0.016651 	 -0.109000 	
-0.013214 	 -0.096000 	
-0.008822 	 -0.086000 	
-0.005196 	 -0.074000 	
-0.001008 	 -0.063000 	
0.002818 	 -0.051000 	
0.007413 	 -0.040000 	
0.010967 	 -0.030000 	
0.015005 	 -0.018000 	
0.018830 	 -0.007000 	
0.022990 	 0.005000 	
0.027400 	 0.016000 	
0.031130 	 0.029000 	
0.035154 	 0.040000 	
0.039380 	 0.053000 	
0.042975 	 0.063000 	
0.046939 	 0.075000 	
0.051513 	 0.086000 	
0.055268 	 0.098000 	
0.059788 	 0.108000 	
0.063595 	 0.120000 	
0.067525 	 0.130000 	
0.071657 	 0.140000 	
0.075710 	 0.153000 	
0.079867 	 0.163000 	
0.083828 	 0.176000 	
0.087681 	 0.187000 	
0.091399 	 0.200000 	
0.095807 	 0.211000 	
0.099726 	 0.222000 	
0.103362 	 0.235000 	
0.107805 	 0.248000 	
0.111525 	 0.258000 	
0.116129 	 0.269000 	
0.119767 	 0.281000 	
0.123677 	 0.291000 	
0.128038 	 0.304000 	
0.131910 	 0.314000 	
0.135715 	 0.326000 	
0.139982 	 0.336000 	
0.144049 	 0.346000 	
0.147649 	 0.358000 	
0.152146 	 0.368000 	
0.156119 	 0.380000 	
0.159687 	 0.390000 	
0.164125 	 0.402000 	
0.168158 	 0.413000 	
0.171855 	 0.425000 	
0.176396 	 0.435000 	
0.180058 	 0.446000 	
0.183902 	 0.458000 	
0.187898 	 0.469000 	
0.192149 	 0.482000 	
0.196017 	 0.493000 	
0.200380 	 0.506000 	
0.204185 	 0.517000 	
0.208113 	 0.527000 	
0.212523 	 0.539000 	
0.216652 	 0.549000 	
0.220195 	 0.561000 	
0.224177 	 0.572000 	
0.228208 	 0.584000 	
0.232569 	 0.594000 	
0.236308 	 0.604000 	
0.240641 	 0.616000 	
0.243990 	 0.626000 	
0.248470 	 0.639000 	
0.252477 	 0.649000 	
0.256508 	 0.662000 	
0.260767 	 0.672000 	
0.264662 	 0.683000 	
0.268638 	 0.696000 	
0.272837 	 0.706000 	
0.276894 	 0.719000 	
0.280544 	 0.729000 	
0.284498 	 0.741000 	
0.288690 	 0.752000 	
0.292420 	 0.764000 	
0.296353 	 0.775000 	
0.300906 	 0.785000 	
0.304743 	 0.797000 	
0.308577 	 0.807000 	
0.313158 	 0.817000 	
0.316996 	 0.829000 	
0.320828 	 0.839000 	
0.324750 	 0.852000 	
0.328652 	 0.862000 	
0.333053 	 0.875000 	
0.336890 	 0.885000 	
0.340837 	 0.896000 	
0.345083 	 0.908000 	
0.348775 	 0.919000 	
0.352855 	 0.932000 	
0.356829 	 0.942000 	
0.361067 	 0.955000 	
0.364917 	 0.965000 	
0.368950 	 0.978000 	
0.373346 	 0.988000 	
0.376835 	 0.998000 	
0.380920 	 1.010000 	
0.385377 	 1.021000 	
0.388984 	 1.033000 	
0.393474 	 1.043000 	
0.397232 	 1.055000 	
0.401060 	 1.065000 	
0.405151 	 1.077000 	
0.409590 	 1.088000 	
0.413438 	 1.100000 	
0.417236 	 1.111000 	
0.421309 	 1.121000 	
0.425460 	 1.134000 	
0.429171 	 1.144000 	
0.433737 	 1.154000 	
0.437689 	 1.166000 	
0.441264 	 1.177000 	
0.445183 	 1.189000 	
0.449706 	 1.200000 	
0.453433 	 1.212000 	
0.457602 	 1.223000 	
0.461355 	 1.236000 	
0.465547 	 1.246000 	
0.469700 	 1.259000 	
0.473404 	 1.268000 	
0.477190 	 1.278000 	
0.481417 	 1.291000 	
0.486075 	 1.301000 	
0.489562 	 1.313000 	
0.493729 	 1.323000 	
0.498003 	 1.333000 	
0.501559 	 1.346000 	
0.505766 	 1.356000 	
0.510270 	 1.368000 	
0.513854 	 1.379000 	
0.517963 	 1.391000 	
0.521557 	 1.402000 	
0.525892 	 1.412000 	
0.529521 	 1.425000 	
0.534020 	 1.436000 	
0.538364 	 1.449000 	
0.541984 	 1.460000 	
0.545849 	 1.472000 	
0.550149 	 1.482000 	
0.553659 	 1.493000 	
0.558345 	 1.505000 	
0.561843 	 1.514000 	
0.566323 	 1.526000 	
0.570142 	 1.536000 	
0.573953 	 1.549000 	
0.577994 	 1.559000 	
0.582343 	 1.572000 	
0.586213 	 1.582000 	
0.590433 	 1.595000 	
0.594537 	 1.605000 	
0.598208 	 1.616000 	
0.601989 	 1.628000 	
0.606173 	 1.639000 	
0.610283 	 1.652000 	
0.614321 	 1.662000 	
0.618519 	 1.672000 	
0.622641 	 1.685000 	
0.626116 	 1.697000 	
0.630390 	 1.707000 	
0.634295 	 1.717000 	
0.638457 	 1.729000 	
0.642695 	 1.739000 	
0.646686 	 1.751000 	
0.650361 	 1.761000 	
0.654676 	 1.773000 	
0.658716 	 1.784000 	
0.662570 	 1.795000 	
0.666484 	 1.808000 	
0.670640 	 1.818000 	
0.674635 	 1.831000 	
0.678554 	 1.841000 	
0.682504 	 1.854000 	
0.686570 	 1.865000 	
0.690548 	 1.875000 	
0.694560 	 1.888000 	
0.699000 	 1.898000 	
0.703010 	 1.910000 	
0.706953 	 1.921000 	
0.710715 	 1.933000 	
0.715029 	 1.943000 	
0.719264 	 1.953000 	
0.722626 	 1.965000 	
0.726863 	 1.975000 	
0.731009 	 1.987000 	
0.735148 	 1.997000 	
0.739352 	 2.009000 	
0.742785 	 2.019000 	
0.747471 	 2.031000 	
0.751371 	 2.042000 	
0.754864 	 2.054000 	
0.759251 	 2.064000 	
0.762986 	 2.074000 	
0.767098 	 2.087000 	
0.771008 	 2.097000 	
0.775322 	 2.110000 	
0.779208 	 2.121000 	
0.783066 	 2.131000 	
0.787005 	 2.143000 	
0.791295 	 2.154000 	
0.795140 	 2.166000 	
0.799491 	 2.176000 	
0.803473 	 2.188000 	
0.807383 	 2.198000 	
0.811358 	 2.208000 	
0.815286 	 2.221000 	
0.819235 	 2.231000 	
0.823727 	 2.243000 	
0.827471 	 2.254000 	
0.831442 	 2.266000 	
0.835987 	 2.276000 	
0.839406 	 2.287000 	
0.843945 	 2.299000 	
0.847443 	 2.311000 	
0.851546 	 2.322000 	
0.855853 	 2.333000 	
0.859901 	 2.345000 	
0.863555 	 2.356000 	
0.867720 	 2.369000 	
0.871924 	 2.380000 	
0.875628 	 2.390000 	
0.879853 	 2.403000 	
0.884151 	 2.413000 	
0.887649 	 2.425000 	
0.891830 	 2.435000 	
0.896364 	 2.447000 	
0.899670 	 2.457000 	
0.903861 	 2.467000 	
0.908208 	 2.479000 	
0.912010 	 2.489000 	
0.915824 	 2.502000 	
0.919862 	 2.512000 	
0.924122 	 2.525000 	
0.928270 	 2.536000 	
0.932311 	 2.547000 	
0.935919 	 2.560000 	
0.940055 	 2.570000 	
0.944033 	 2.583000 	
0.948080 	 2.593000 	
0.951948 	 2.606000 	
0.956292 	 2.616000 	
0.960150 	 2.626000 	
0.964036 	 2.638000 	
0.968423 	 2.648000 	
0.972714 	 2.660000 	
0.976060 	 2.670000 	
0.980316 	 2.680000 	
0.984565 	 2.692000 	
0.988107 	 2.702000 	
0.992314 	 2.715000 	
0.996763 	 2.726000 	
1.000612 	 2.739000 	
1.004526 	 2.749000 	
1.008527 	 2.760000 	
1.012358 	 2.772000 	
1.016536 	 2.783000 	
1.020308 	 2.795000 	
1.024542 	 2.806000 	
1.028709 	 2.819000 	
1.032691 	 2.829000 	
1.036293 	 2.839000 	
1.040700 	 2.851000 	
1.044801 	 2.861000 	
1.048632 	 2.873000 	
1.052286 	 2.883000 	
1.056946 	 2.895000 	
1.060592 	 2.906000 	
1.064644 	 2.918000 	
1.068956 	 2.928000 	
1.072688 	 2.939000 	
1.076864 	 2.951000 	
1.080708 	 2.962000 	
1.084838 	 2.975000 	
1.089028 	 2.986000 	
1.093036 	 2.998000 	
1.096676 	 3.009000 	
1.101131 	 3.019000 	
1.105148 	 3.031000 	
1.109149 	 3.042000 	
1.113180 	 3.054000 	
1.117057 	 3.064000 	
1.120829 	 3.076000 	
1.125452 	 3.086000 	
1.129052 	 3.096000 	
1.132896 	 3.108000 	
1.136982 	 3.118000 	
1.141534 	 3.129000 	
1.145157 	 3.141000 	
1.149424 	 3.154000 	
1.153291 	 3.164000 	
1.157500 	 3.175000 	
1.161721 	 3.187000 	
1.165380 	 3.198000 	
1.169540 	 3.210000 	
1.173358 	 3.221000 	
1.177521 	 3.233000 	
1.181825 	 3.243000 	
1.185522 	 3.254000 	
1.189313 	 3.266000 	
1.193643 	 3.277000 	
1.197806 	 3.289000 	
1.201451 	 3.299000 	
1.205681 	 3.312000 	
1.209782 	 3.322000 	
1.213467 	 3.335000 	
1.218069 	 3.345000 	
1.221808 	 3.355000 	
1.225858 	 3.367000 	
1.229885 	 3.378000 	
1.233689 	 3.390000 	
1.237423 	 3.400000 	
1.241716 	 3.413000 	
1.245993 	 3.423000 	
1.249959 	 3.434000 	
1.254105 	 3.447000 	
1.258225 	 3.457000 	
1.261746 	 3.470000 	
1.266060 	 3.481000 	
1.270134 	 3.493000 	
1.274013 	 3.503000 	
1.277836 	 3.516000 	
1.281748 	 3.527000 	
1.286228 	 3.539000 	
1.290079 	 3.549000 	
1.294197 	 3.559000 	
1.298218 	 3.571000 	
1.302152 	 3.581000 	
1.306146 	 3.593000 	
1.310448 	 3.603000 	
1.314710 	 3.615000 	
1.318344 	 3.625000 	
1.322693 	 3.635000 	
1.326292 	 3.648000 	
1.330840 	 3.658000 	
1.334535 	 3.670000 	
1.338253 	 3.681000 	
1.342761 	 3.693000 	
1.346582 	 3.704000 	
1.350536 	 3.717000 	
1.355089 	 3.727000 	
1.358549 	 3.740000 	
1.363254 	 3.751000 	
1.367021 	 3.761000 	
1.371134 	 3.774000 	
1.374590 	 3.784000 	
1.379016 	 3.795000 	
1.383078 	 3.804000 	
1.386735 	 3.814000 	
1.391042 	 3.822000 	
1.395358 	 3.832000 	
1.398662 	 3.840000 	
1.403049 	 3.849000 	
1.407055 	 3.860000 	
1.410918 	 3.870000 	
1.415052 	 3.881000 	
1.418880 	 3.892000 	
1.423250 	 3.904000 	
1.427431 	 3.914000 	
1.431125 	 3.924000 	
1.434736 	 3.937000 	
1.439428 	 3.947000 	
1.442971 	 3.959000 	
1.447091 	 3.970000 	
1.451359 	 3.982000 	
1.455289 	 3.993000 	
1.458995 	 4.003000 	
1.463338 	 4.015000 	
1.467380 	 4.026000 	
1.471197 	 4.038000 	
1.475590 	 4.048000 	
1.479659 	 4.058000 	
1.483475 	 4.071000 	
1.487579 	 4.082000 	
1.491596 	 4.094000 	
1.495379 	 4.104000 	
1.499808 	 4.117000 	
1.503853 	 4.127000 	
1.507440 	 4.137000 	
1.511546 	 4.149000 	
1.515809 	 4.159000 	
1.519492 	 4.170000 	
1.523556 	 4.182000 	
1.527748 	 4.195000 	
1.531670 	 4.205000 	
1.536089 	 4.216000 	
1.539606 	 4.229000 	
1.544226 	 4.242000 	
1.548054 	 4.252000 	
1.551648 	 4.262000 	
1.555986 	 4.274000 	
1.560220 	 4.284000 	
1.564193 	 4.294000 	
1.567908 	 4.307000 	
1.571906 	 4.317000 	
1.576006 	 4.330000 	
1.580100 	 4.341000 	
1.584480 	 4.354000 	
1.587912 	 4.364000 	
1.592507 	 4.377000 	
1.596127 	 4.387000 	
1.600011 	 4.397000 	
1.604049 	 4.409000 	
1.607935 	 4.420000 	
1.612151 	 4.432000 	
1.616098 	 4.442000 	
1.620345 	 4.454000 	
1.624151 	 4.465000 	
1.628634 	 4.475000 	
1.632357 	 4.487000 	
1.636011 	 4.497000 	
1.640089 	 4.510000 	
1.644606 	 4.520000 	
1.648654 	 4.533000 	
1.652248 	 4.543000 	
1.656661 	 4.554000 	
1.660869 	 4.567000 	
1.664728 	 4.577000 	
1.668427 	 4.589000 	
1.672856 	 4.600000 	
1.676410 	 4.612000 	
1.681086 	 4.622000 	
1.684461 	 4.632000 	
1.688501 	 4.644000 	
1.693042 	 4.654000 	
1.696414 	 4.667000 	
1.700922 	 4.677000 	
1.704907 	 4.690000 	
1.708884 	 4.700000 	
1.712829 	 4.712000 	
1.717122 	 4.723000 	
1.720501 	 4.733000 	
1.724780 	 4.746000 	
1.728877 	 4.756000 	
1.732568 	 4.769000 	
1.737171 	 4.779000 	
1.741241 	 4.792000 	
1.745160 	 4.802000 	
1.748729 	 4.813000 	
1.753127 	 4.825000 	
1.756870 	 4.835000 	
1.761054 	 4.845000 	
1.765321 	 4.857000 	
1.769037 	 4.867000 	
1.772949 	 4.880000 	
1.777361 	 4.890000 	
1.781016 	 4.902000 	
1.784951 	 4.913000 	
1.789221 	 4.925000 	
1.792950 	 4.936000 	
1.797634 	 4.948000 	
1.800889 	 4.958000 	
1.805254 	 4.968000 	
1.809671 	 4.981000 	
1.813065 	 4.991000 	
1.817178 	 5.004000 	
1.821333 	 5.014000 	
1.825286 	 5.025000 	
1.829517 	 5.037000 	
1.833508 	 5.049000 	
1.837474 	 5.060000 	
1.841288 	 5.070000 	
1.845641 	 5.082000 	
1.849867 	 5.092000 	
1.853447 	 5.103000 	
1.857410 	 5.115000 	
1.862070 	 5.125000 	
1.865933 	 5.138000 	
1.869427 	 5.149000 	
1.873830 	 5.161000 	
1.877552 	 5.172000 	
1.881822 	 5.182000 	
1.885710 	 5.195000 	
1.889550 	 5.205000 	
1.894161 	 5.218000 	
1.898108 	 5.228000 	
1.901920 	 5.241000 	
1.906238 	 5.251000 	
1.910132 	 5.264000 	
1.914069 	 5.275000 	
1.917932 	 5.285000 	
1.922359 	 5.297000 	
1.925969 	 5.308000 	
1.929979 	 5.320000 	
1.933900 	 5.330000 	
1.937925 	 5.342000 	
1.942119 	 5.353000 	
1.945989 	 5.365000 	
1.950537 	 5.375000 	
1.954304 	 5.388000 	
1.958158 	 5.398000 	
1.962320 	 5.408000 	
1.966688 	 5.420000 	
1.970408 	 5.430000 	
1.974063 	 5.440000 	
1.978571 	 5.453000 	
1.982441 	 5.465000 	
1.986580 	 5.476000 	
1.990915 	 5.486000 	
1.994259 	 5.499000 	
1.998940 	 5.509000 	
2.002408 	 5.522000 	
2.006525 	 5.533000 	
2.010615 	 5.545000 	
2.014630 	 5.555000 	
2.018313 	 5.565000 	
2.022938 	 5.577000 	
2.026960 	 5.590000 	
2.031124 	 5.600000 	
2.035099 	 5.611000 	
2.039000 	 5.624000 	
2.043055 	 5.634000 	
2.047018 	 5.646000 	
2.051086 	 5.657000 	
2.054914 	 5.669000 	
2.058560 	 5.679000 	
2.063068 	 5.692000 	
2.066650 	 5.702000 	
2.070861 	 5.715000 	
2.074974 	 5.725000 	
2.079083 	 5.738000 	
2.083179 	 5.748000 	
2.086949 	 5.760000 	
2.090643 	 5.771000 	
2.095252 	 5.781000 	
2.098764 	 5.793000 	
2.102812 	 5.803000 	
2.107470 	 5.815000 	
2.110916 	 5.826000 	
2.114931 	 5.838000 	
2.119369 	 5.849000 	
2.123529 	 5.859000 	
2.127509 	 5.871000 	
2.131559 	 5.881000 	
2.135681 	 5.893000 	
2.139303 	 5.904000 	
2.143753 	 5.916000 	
2.147406 	 5.926000 	
2.151579 	 5.937000 	
2.155816 	 5.949000 	
2.159455 	 5.961000 	
2.163617 	 5.971000 	
2.167938 	 5.981000 	
2.171534 	 5.994000 	
2.175675 	 6.004000 	
2.179643 	 6.016000 	
2.183504 	 6.026000 	
2.187788 	 6.038000 	
2.191791 	 6.049000 	
2.195581 	 6.062000 	
2.199762 	 6.073000 	
2.204210 	 6.084000 	
2.207857 	 6.097000 	
2.211987 	 6.107000 	
2.216084 	 6.119000 	
2.220262 	 6.130000 	
2.224223 	 6.142000 	
2.228301 	 6.152000 	
2.232075 	 6.164000 	
2.236048 	 6.174000 	
2.240222 	 6.186000 	
2.244176 	 6.197000 	
2.248511 	 6.208000 	
2.252275 	 6.221000 	
2.255991 	 6.231000 	
2.260403 	 6.243000 	
2.264086 	 6.254000 	
2.268113 	 6.266000 	
2.272581 	 6.276000 	
2.276362 	 6.286000 	
2.280562 	 6.299000 	
2.284505 	 6.311000 	
2.288330 	 6.321000 	
2.292641 	 6.332000 	
2.296436 	 6.344000 	
2.300166 	 6.354000 	
2.304840 	 6.366000 	
2.308729 	 6.376000 	
2.312403 	 6.388000 	
2.316450 	 6.399000 	
2.320598 	 6.409000 	
2.324274 	 6.422000 	
2.328785 	 6.432000 	
2.332390 	 6.445000 	
2.336969 	 6.455000 	
2.340939 	 6.468000 	
2.344612 	 6.478000 	
2.348992 	 6.488000 	
2.352832 	 6.500000 	
2.356620 	 6.510000 	
2.361165 	 6.523000 	
2.364845 	 6.533000 	
2.368706 	 6.546000 	
2.372992 	 6.557000 	
2.376970 	 6.569000 	
2.381183 	 6.579000 	
2.384845 	 6.589000 	
2.388981 	 6.602000 	
2.392933 	 6.612000 	
2.397196 	 6.625000 	
2.400860 	 6.635000 	
2.404859 	 6.648000 	
2.409035 	 6.658000 	
2.412790 	 6.671000 	
2.417254 	 6.681000 	
2.421379 	 6.693000 	
2.424982 	 6.703000 	
2.429088 	 6.716000 	
2.433304 	 6.726000 	
2.437377 	 6.738000 	
2.440971 	 6.748000 	
2.445597 	 6.758000 	
2.449146 	 6.771000 	
2.453408 	 6.781000 	
2.457720 	 6.791000 	
2.461305 	 6.804000 	
2.465617 	 6.816000 	
2.469630 	 6.826000 	
2.473764 	 6.836000 	
2.477502 	 6.848000 	
2.481772 	 6.859000 	
2.485340 	 6.871000 	
2.489636 	 6.882000 	
2.493249 	 6.894000 	
2.497387 	 6.904000 	
2.501816 	 6.916000 	
2.505461 	 6.926000 	
2.509927 	 6.939000 	
2.513931 	 6.949000 	
2.517922 	 6.959000 	
2.521925 	 6.972000 	
2.525966 	 6.983000 	
2.529487 	 6.996000 	
2.534108 	 7.006000 	
2.538025 	 7.019000 	
2.541726 	 7.029000 	
2.545984 	 7.039000 	
2.550127 	 7.051000 	
2.553864 	 7.062000 	
2.557636 	 7.072000 	
2.561896 	 7.084000 	
2.565836 	 7.097000 	
2.569961 	 7.107000 	
2.573941 	 7.118000 	
2.578018 	 7.130000 	
2.582202 	 7.141000 	
2.586366 	 7.153000 	
2.589841 	 7.163000 	
2.594335 	 7.175000 	
2.598287 	 7.186000 	
2.602243 	 7.198000 	
2.606375 	 7.208000 	
2.610229 	 7.221000 	
2.614417 	 7.231000 	
2.618186 	 7.241000 	
2.622054 	 7.254000 	
2.626508 	 7.264000 	
2.630434 	 7.276000 	
2.634201 	 7.286000 	
2.638719 	 7.298000 	
2.642233 	 7.309000 	
2.646503 	 7.321000 	
2.650195 	 7.331000 	
2.654354 	 7.344000 	
2.658910 	 7.354000 	
2.662623 	 7.365000 	
2.666324 	 7.377000 	
2.670861 	 7.388000 	
2.674864 	 7.400000 	
2.678414 	 7.410000 	
2.682952 	 7.422000 	
2.686443 	 7.432000 	
2.690788 	 7.444000 	
2.695053 	 7.454000 	
2.698487 	 7.465000 	
2.702975 	 7.477000 	
2.707158 	 7.488000 	
2.710827 	 7.500000 	
2.714881 	 7.511000 	
2.718679 	 7.523000 	
2.722841 	 7.534000 	
2.727097 	 7.547000 	
2.731008 	 7.557000 	
2.735087 	 7.570000 	
2.739331 	 7.581000 	
2.743488 	 7.592000 	
2.746930 	 7.605000 	
2.750922 	 7.615000 	
2.755474 	 7.628000 	
2.759421 	 7.638000 	
2.763319 	 7.650000 	
2.767509 	 7.660000 	
2.771552 	 7.670000 	
2.775345 	 7.683000 	
2.779643 	 7.693000 	
2.783134 	 7.706000 	
2.787146 	 7.717000 	
2.791640 	 7.729000 	
2.795384 	 7.740000 	
2.799329 	 7.750000 	
2.803440 	 7.762000 	
2.807693 	 7.772000 	
2.811560 	 7.785000 	
2.815849 	 7.795000 	
2.819913 	 7.807000 	
2.823533 	 7.818000 	
2.828127 	 7.830000 	
2.831754 	 7.840000 	
2.836089 	 7.850000 	
2.839856 	 7.862000 	
2.843995 	 7.872000 	
2.847858 	 7.882000 	
2.852025 	 7.895000 	
2.855714 	 7.905000 	
2.859973 	 7.919000 	
2.864287 	 7.930000 	
2.868175 	 7.943000 	
2.871758 	 7.953000 	
2.876233 	 7.963000 	
2.879888 	 7.976000 	
2.884240 	 7.986000 	
2.888219 	 7.998000 	
2.892526 	 8.009000 	
2.896235 	 8.021000 	
2.900413 	 8.032000 	
2.904307 	 8.044000 	
2.908233 	 8.055000 	
2.912006 	 8.067000 	
2.916230 	 8.077000 	
2.920233 	 8.090000 	
2.923962 	 8.100000 	
2.928400 	 8.112000 	
2.931985 	 8.122000 	
2.936243 	 8.132000 	
2.940595 	 8.144000 	
2.944638 	 8.155000 	
2.948215 	 8.167000 	
2.952562 	 8.178000 	
2.956769 	 8.190000 	
2.960912 	 8.200000 	
2.964593 	 8.212000 	
2.968766 	 8.223000 	
2.972625 	 8.235000 	
2.976953 	 8.245000 	
2.980788 	 8.255000 	
2.984706 	 8.268000 	
2.988567 	 8.278000 	
2.992886 	 8.290000 	
2.996709 	 8.301000 	
3.000612 	 8.311000 	
3.004790 	 8.323000 	
3.008786 	 8.336000 	
3.013070 	 8.346000 	
3.016788 	 8.357000 	
3.021184 	 8.369000 	
3.024921 	 8.380000 	
3.028704 	 8.392000 	
3.033063 	 8.403000 	
3.037126 	 8.415000 	
3.040830 	 8.425000 	
3.045035 	 8.436000 	
3.049365 	 8.448000 	
3.053139 	 8.458000 	
3.056948 	 8.469000 	
3.061452 	 8.481000 	
3.064859 	 8.493000 	
3.069308 	 8.504000 	
3.073328 	 8.514000 	
3.077058 	 8.527000 	
3.081444 	 8.539000 	
3.085326 	 8.549000 	
3.089039 	 8.559000 	
3.093784 	 8.571000 	
3.097492 	 8.581000 	
3.100969 	 8.593000 	
3.105477 	 8.604000 	
3.109129 	 8.616000 	
3.113210 	 8.626000 	
3.117482 	 8.636000 	
3.121293 	 8.649000 	
3.125851 	 8.659000 	
3.129711 	 8.672000 	
3.133375 	 8.682000 	
3.137350 	 8.695000 	
3.141230 	 8.705000 	
3.145373 	 8.716000 	
3.149935 	 8.729000 	
3.153870 	 8.739000 	
3.157563 	 8.752000 	
3.161984 	 8.762000 	
3.165828 	 8.774000 	
3.169542 	 8.784000 	
3.173627 	 8.796000 	
3.177973 	 8.806000 	
3.182054 	 8.816000 	
3.186078 	 8.829000 	
3.189850 	 8.839000 	
3.193528 	 8.852000 	
3.197835 	 8.863000 	
3.201583 	 8.875000 	
3.206129 	 8.885000 	
3.209870 	 8.898000 	
3.213792 	 8.908000 	
3.217827 	 8.920000 	
3.222174 	 8.931000 	
3.226159 	 8.943000 	
3.230036 	 8.954000 	
3.234455 	 8.967000 	
3.237965 	 8.977000 	
3.242263 	 8.987000 	
3.246313 	 9.000000 	
3.250624 	 9.010000 	
3.254005 	 9.022000 	
3.258572 	 9.032000 	
3.262342 	 9.044000 	
3.266696 	 9.054000 	
3.270647 	 9.065000 	
3.274178 	 9.077000 	
3.278467 	 9.088000 	
3.282741 	 9.101000 	
3.286566 	 9.111000 	
3.290221 	 9.124000 	
3.294638 	 9.134000 	
3.298286 	 9.144000 	
3.302726 	 9.157000 	
3.306395 	 9.169000 	
3.310450 	 9.179000 	
3.314904 	 9.190000 	
3.318407 	 9.202000 	
3.322866 	 9.212000 	
3.326603 	 9.222000 	
3.331059 	 9.234000 	
3.334894 	 9.245000 	
3.338563 	 9.257000 	
3.342870 	 9.267000 	
3.346612 	 9.279000 	
3.350540 	 9.289000 	
3.354728 	 9.302000 	
3.359093 	 9.313000 	
3.362792 	 9.323000 	
3.367198 	 9.336000 	
3.371049 	 9.347000 	
3.374975 	 9.360000 	
3.379376 	 9.371000 	
3.383549 	 9.383000 	
3.386968 	 9.393000 	
3.391640 	 9.404000 	
3.395564 	 9.416000 	
3.399340 	 9.426000 	
3.403072 	 9.436000 	
3.407625 	 9.448000 	
3.411261 	 9.458000 	
3.415146 	 9.470000 	
3.419688 	 9.480000 	
3.423132 	 9.492000 	
3.427624 	 9.502000 	
3.431779 	 9.514000 	
3.435186 	 9.524000 	
3.439467 	 9.537000 	
3.443389 	 9.547000 	
3.447593 	 9.557000 	
3.451905 	 9.570000 	
3.455735 	 9.580000 	
3.459605 	 9.593000 	
3.463608 	 9.603000 	
3.468034 	 9.616000 	
3.471734 	 9.626000 	
3.476132 	 9.639000 	
3.479901 	 9.649000 	
3.483778 	 9.661000 	
3.488261 	 9.672000 	
3.491506 	 9.682000 	
3.496129 	 9.694000 	
3.499643 	 9.704000 	
3.503829 	 9.716000 	
3.507944 	 9.726000 	
3.512282 	 9.739000 	
3.515757 	 9.749000 	
3.520305 	 9.762000 	
3.523830 	 9.772000 	
3.528194 	 9.783000 	
3.532087 	 9.795000 	
3.536490 	 9.806000 	
3.540051 	 9.819000 	
3.544137 	 9.829000 	
3.547938 	 9.841000 	
3.552190 	 9.851000 	
3.556083 	 9.864000 	
3.560179 	 9.874000 	
3.564297 	 9.887000 	
3.568235 	 9.897000 	
3.572032 	 9.908000 	
3.576632 	 9.920000 	
3.580529 	 9.930000 	
3.584606 	 9.943000 	
3.588082 	 9.953000 	
3.592680 	 9.965000 	
3.596257 	 9.975000 	
3.600491 	 9.985000 	
3.604670 	 9.998000 	
3.608608 	 10.009000 	
3.612536 	 10.022000 	
3.616553 	 10.032000 	
3.620515 	 10.042000 	
3.624847 	 10.055000 	
3.629054 	 10.065000 	
3.633071 	 10.077000 	
3.636518 	 10.087000 	
3.640490 	 10.100000 	
3.645235 	 10.110000 	
3.648857 	 10.120000 	
3.653007 	 10.133000 	
3.656814 	 10.145000 	
3.661161 	 10.155000 	
3.665225 	 10.165000 	
3.668997 	 10.177000 	
3.672794 	 10.187000 	
3.677398 	 10.198000 	
3.681020 	 10.210000 	
3.685131 	 10.221000 	
3.689319 	 10.234000 	
3.693231 	 10.245000 	
3.697295 	 10.258000 	
3.701555 	 10.268000 	
3.705102 	 10.278000 	
3.709641 	 10.291000 	
3.713679 	 10.301000 	
3.717332 	 10.314000 	
3.721255 	 10.324000 	
3.725614 	 10.337000 	
3.729058 	 10.347000 	
3.733421 	 10.357000 	
3.737347 	 10.370000 	
3.741374 	 10.380000 	
3.745340 	 10.392000 	
3.749390 	 10.402000 	
3.753351 	 10.415000 	
3.757454 	 10.425000 	
3.761836 	 10.437000 	
3.765510 	 10.447000 	
3.769817 	 10.459000 	
3.773953 	 10.470000 	
3.777765 	 10.482000 	
3.781522 	 10.493000 	
3.785738 	 10.504000 	
3.790059 	 10.516000 	
3.794034 	 10.527000 	
3.797540 	 10.539000 	
3.801692 	 10.549000 	
3.806096 	 10.561000 	
3.810218 	 10.572000 	
3.813896 	 10.582000 	
3.818374 	 10.594000 	
3.822059 	 10.605000 	
3.826268 	 10.617000 	
3.830161 	 10.627000 	
3.834132 	 10.639000 	
3.837819 	 10.649000 	
3.842229 	 10.660000 	
3.846487 	 10.672000 	
3.850126 	 10.684000 	
3.854391 	 10.695000 	
3.858219 	 10.705000 	
3.862238 	 10.718000 	
3.866150 	 10.728000 	
3.870614 	 10.741000 	
3.874028 	 10.751000 	
3.878440 	 10.764000 	
3.882333 	 10.774000 	
3.886142 	 10.787000 	
3.890211 	 10.797000 	
3.894756 	 10.810000 	
3.898224 	 10.820000 	
3.902269 	 10.830000 	
3.906799 	 10.843000 	
3.910358 	 10.853000 	
3.914700 	 10.865000 	
3.918292 	 10.876000 	
3.922931 	 10.888000 	
3.926892 	 10.898000 	
3.930820 	 10.908000 	
3.934554 	 10.921000 	
3.938513 	 10.931000 	
3.942708 	 10.944000 	
3.946706 	 10.955000 	
3.950426 	 10.967000 	
3.954935 	 10.978000 	
3.958730 	 10.988000 	
3.962834 	 11.000000 	
3.967260 	 11.010000 	
3.971251 	 11.023000 	
3.974892 	 11.033000 	
3.979139 	 11.043000 	
3.983023 	 11.056000 	
3.987224 	 11.068000 	
3.991333 	 11.078000 	
3.995629 	 11.088000 	
3.999325 	 11.101000 	
4.003461 	 11.111000 	
4.007476 	 11.122000 	
4.011073 	 11.134000 	
4.015141 	 11.145000 	
4.019390 	 11.157000 	
4.023344 	 11.168000 	
4.027614 	 11.181000 	
4.031781 	 11.191000 	
Y-channel SetVoltage(V) vs Field(mT)
-9.769885 	 -21.698000 	
-9.759880 	 -21.675000 	
-9.749875 	 -21.657000 	
-9.739870 	 -21.638000 	
-9.729865 	 -21.615000 	
-9.719860 	 -21.596000 	
-9.709855 	 -21.574000 	
-9.699850 	 -21.554000 	
-9.689845 	 -21.531000 	
-9.679840 	 -21.512000 	
-9.669835 	 -21.489000 	
-9.659830 	 -21.466000 	
-9.649825 	 -21.447000 	
-9.639820 	 -21.429000 	
-9.629815 	 -21.408000 	
-9.619810 	 -21.390000 	
-9.609805 	 -21.368000 	
-9.599800 	 -21.348000 	
-9.589795 	 -21.325000 	
-9.579790 	 -21.305000 	
-9.569785 	 -21.285000 	
-9.559780 	 -21.261000 	
-9.549775 	 -21.242000 	
-9.539770 	 -21.219000 	
-9.529765 	 -21.201000 	
-9.519760 	 -21.183000 	
-9.509755 	 -21.161000 	
-9.499750 	 -21.138000 	
-9.489745 	 -21.119000 	
-9.479740 	 -21.100000 	
-9.469735 	 -21.076000 	
-9.459730 	 -21.056000 	
-9.449725 	 -21.033000 	
-9.439720 	 -21.014000 	
-9.429715 	 -20.992000 	
-9.419710 	 -20.973000 	
-9.409705 	 -20.951000 	
-9.399700 	 -20.933000 	
-9.389695 	 -20.910000 	
-9.379690 	 -20.891000 	
-9.369685 	 -20.871000 	
-9.359680 	 -20.847000 	
-9.349675 	 -20.824000 	
-9.339670 	 -20.805000 	
-9.329665 	 -20.786000 	
-9.319660 	 -20.763000 	
-9.309655 	 -20.745000 	
-9.299650 	 -20.722000 	
-9.289645 	 -20.703000 	
-9.279640 	 -20.680000 	
-9.269635 	 -20.661000 	
-9.259630 	 -20.638000 	
-9.249625 	 -20.619000 	
-9.239620 	 -20.595000 	
-9.229615 	 -20.576000 	
-9.219610 	 -20.557000 	
-9.209605 	 -20.534000 	
-9.199600 	 -20.515000 	
-9.189595 	 -20.493000 	
-9.179590 	 -20.474000 	
-9.169585 	 -20.452000 	
-9.159580 	 -20.433000 	
-9.149575 	 -20.410000 	
-9.139570 	 -20.391000 	
-9.129565 	 -20.367000 	
-9.119560 	 -20.347000 	
-9.109555 	 -20.327000 	
-9.099550 	 -20.304000 	
-9.089545 	 -20.284000 	
-9.079540 	 -20.261000 	
-9.069535 	 -20.242000 	
-9.059530 	 -20.220000 	
-9.049525 	 -20.201000 	
-9.039520 	 -20.178000 	
-9.029515 	 -20.159000 	
-9.019510 	 -20.135000 	
-9.009505 	 -20.115000 	
-8.999500 	 -20.092000 	
-8.989495 	 -20.074000 	
-8.979490 	 -20.052000 	
-8.969485 	 -20.034000 	
-8.959480 	 -20.012000 	
-8.949475 	 -19.989000 	
-8.939470 	 -19.970000 	
-8.929465 	 -19.950000 	
-8.919460 	 -19.926000 	
-8.909455 	 -19.903000 	
-8.899450 	 -19.883000 	
-8.889445 	 -19.864000 	
-8.879440 	 -19.842000 	
-8.869435 	 -19.823000 	
-8.859430 	 -19.801000 	
-8.849425 	 -19.782000 	
-8.839420 	 -19.759000 	
-8.829415 	 -19.740000 	
-8.819410 	 -19.717000 	
-8.809405 	 -19.697000 	
-8.799400 	 -19.674000 	
-8.789395 	 -19.655000 	
-8.779390 	 -19.632000 	
-8.769385 	 -19.613000 	
-8.759380 	 -19.594000 	
-8.749375 	 -19.572000 	
-8.739370 	 -19.550000 	
-8.729365 	 -19.532000 	
-8.719360 	 -19.514000 	
-8.709355 	 -19.491000 	
-8.699350 	 -19.472000 	
-8.689345 	 -19.448000 	
-8.679340 	 -19.428000 	
-8.669335 	 -19.404000 	
-8.659330 	 -19.384000 	
-8.649325 	 -19.362000 	
-8.639320 	 -19.343000 	
-8.629315 	 -19.320000 	
-8.619310 	 -19.302000 	
-8.609305 	 -19.283000 	
-8.599300 	 -19.260000 	
-8.589295 	 -19.240000 	
-8.579290 	 -19.216000 	
-8.569285 	 -19.196000 	
-8.559280 	 -19.173000 	
-8.549275 	 -19.154000 	
-8.539270 	 -19.131000 	
-8.529265 	 -19.113000 	
-8.519260 	 -19.091000 	
-8.509255 	 -19.072000 	
-8.499250 	 -19.049000 	
-8.489245 	 -19.030000 	
-8.479240 	 -19.006000 	
-8.469235 	 -18.986000 	
-8.459230 	 -18.966000 	
-8.449225 	 -18.943000 	
-8.439220 	 -18.920000 	
-8.429215 	 -18.902000 	
-8.419210 	 -18.880000 	
-8.409205 	 -18.862000 	
-8.399200 	 -18.840000 	
-8.389195 	 -18.821000 	
-8.379190 	 -18.802000 	
-8.369185 	 -18.778000 	
-8.359180 	 -18.758000 	
-8.349175 	 -18.735000 	
-8.339170 	 -18.715000 	
-8.329165 	 -18.692000 	
-8.319160 	 -18.673000 	
-8.309155 	 -18.651000 	
-8.299150 	 -18.632000 	
-8.289145 	 -18.610000 	
-8.279140 	 -18.590000 	
-8.269135 	 -18.570000 	
-8.259130 	 -18.546000 	
-8.249125 	 -18.522000 	
-8.239120 	 -18.503000 	
-8.229115 	 -18.480000 	
-8.219110 	 -18.461000 	
-8.209105 	 -18.439000 	
-8.199100 	 -18.421000 	
-8.189095 	 -18.399000 	
-8.179090 	 -18.380000 	
-8.169085 	 -18.357000 	
-8.159080 	 -18.338000 	
-8.149075 	 -18.315000 	
-8.139070 	 -18.295000 	
-8.129065 	 -18.275000 	
-8.119060 	 -18.251000 	
-8.109055 	 -18.232000 	
-8.099050 	 -18.209000 	
-8.089045 	 -18.190000 	
-8.079040 	 -18.168000 	
-8.069035 	 -18.149000 	
-8.059030 	 -18.127000 	
-8.049025 	 -18.108000 	
-8.039020 	 -18.084000 	
-8.029015 	 -18.064000 	
-8.019010 	 -18.040000 	
-8.009005 	 -18.020000 	
-7.998999 	 -17.997000 	
-7.988994 	 -17.978000 	
-7.978989 	 -17.956000 	
-7.968984 	 -17.937000 	
-7.958979 	 -17.915000 	
-7.948974 	 -17.896000 	
-7.938969 	 -17.873000 	
-7.928964 	 -17.853000 	
-7.918959 	 -17.829000 	
-7.908954 	 -17.809000 	
-7.898949 	 -17.787000 	
-7.888944 	 -17.769000 	
-7.878939 	 -17.747000 	
-7.868934 	 -17.728000 	
-7.858929 	 -17.706000 	
-7.848924 	 -17.684000 	
-7.838919 	 -17.665000 	
-7.828914 	 -17.645000 	
-7.818909 	 -17.621000 	
-7.808904 	 -17.601000 	
-7.798899 	 -17.582000 	
-7.788894 	 -17.558000 	
-7.778889 	 -17.536000 	
-7.768884 	 -17.517000 	
-7.758879 	 -17.498000 	
-7.748874 	 -17.475000 	
-7.738869 	 -17.453000 	
-7.728864 	 -17.433000 	
-7.718859 	 -17.414000 	
-7.708854 	 -17.391000 	
-7.698849 	 -17.371000 	
-7.688844 	 -17.348000 	
-7.678839 	 -17.329000 	
-7.668834 	 -17.306000 	
-7.658829 	 -17.283000 	
-7.648824 	 -17.264000 	
-7.638819 	 -17.245000 	
-7.628814 	 -17.222000 	
-7.618809 	 -17.203000 	
-7.608804 	 -17.180000 	
-7.598799 	 -17.161000 	
-7.588794 	 -17.137000 	
-7.578789 	 -17.118000 	
-7.568784 	 -17.095000 	
-7.558779 	 -17.076000 	
-7.548774 	 -17.053000 	
-7.538769 	 -17.035000 	
-7.528764 	 -17.017000 	
-7.518759 	 -16.994000 	
-7.508754 	 -16.976000 	
-7.498749 	 -16.952000 	
-7.488744 	 -16.929000 	
-7.478739 	 -16.909000 	
-7.468734 	 -16.888000 	
-7.458729 	 -16.865000 	
-7.448724 	 -16.841000 	
-7.438719 	 -16.823000 	
-7.428714 	 -16.805000 	
-7.418709 	 -16.784000 	
-7.408704 	 -16.762000 	
-7.398699 	 -16.744000 	
-7.388694 	 -16.724000 	
-7.378689 	 -16.701000 	
-7.368684 	 -16.676000 	
-7.358679 	 -16.656000 	
-7.348674 	 -16.637000 	
-7.338669 	 -16.614000 	
-7.328664 	 -16.595000 	
-7.318659 	 -16.572000 	
-7.308654 	 -16.553000 	
-7.298649 	 -16.530000 	
-7.288644 	 -16.511000 	
-7.278639 	 -16.487000 	
-7.268634 	 -16.467000 	
-7.258629 	 -16.443000 	
-7.248624 	 -16.424000 	
-7.238619 	 -16.405000 	
-7.228614 	 -16.382000 	
-7.218609 	 -16.359000 	
-7.208604 	 -16.340000 	
-7.198599 	 -16.321000 	
-7.188594 	 -16.298000 	
-7.178589 	 -16.278000 	
-7.168584 	 -16.255000 	
-7.158579 	 -16.235000 	
-7.148574 	 -16.211000 	
-7.138569 	 -16.192000 	
-7.128564 	 -16.168000 	
-7.118559 	 -16.149000 	
-7.108554 	 -16.126000 	
-7.098549 	 -16.107000 	
-7.088544 	 -16.088000 	
-7.078539 	 -16.066000 	
-7.068534 	 -16.043000 	
-7.058529 	 -16.024000 	
-7.048524 	 -16.004000 	
-7.038519 	 -15.980000 	
-7.028514 	 -15.960000 	
-7.018509 	 -15.936000 	
-7.008504 	 -15.917000 	
-6.998499 	 -15.894000 	
-6.988494 	 -15.875000 	
-6.978489 	 -15.855000 	
-6.968484 	 -15.832000 	
-6.958479 	 -15.812000 	
-6.948474 	 -15.789000 	
-6.938469 	 -15.769000 	
-6.928464 	 -15.745000 	
-6.918459 	 -15.725000 	
-6.908454 	 -15.702000 	
-6.898449 	 -15.682000 	
-6.888444 	 -15.660000 	
-6.878439 	 -15.641000 	
-6.868434 	 -15.622000 	
-6.858429 	 -15.600000 	
-6.848424 	 -15.576000 	
-6.838419 	 -15.556000 	
-6.828414 	 -15.536000 	
-6.818409 	 -15.513000 	
-6.808404 	 -15.493000 	
-6.798399 	 -15.470000 	
-6.788394 	 -15.451000 	
-6.778389 	 -15.429000 	
-6.768384 	 -15.410000 	
-6.758379 	 -15.387000 	
-6.748374 	 -15.367000 	
-6.738369 	 -15.344000 	
-6.728364 	 -15.325000 	
-6.718359 	 -15.302000 	
-6.708354 	 -15.282000 	
-6.698349 	 -15.259000 	
-6.688344 	 -15.240000 	
-6.678339 	 -15.217000 	
-6.668334 	 -15.198000 	
-6.658329 	 -15.176000 	
-6.648324 	 -15.157000 	
-6.638319 	 -15.134000 	
-6.628314 	 -15.115000 	
-6.618309 	 -15.095000 	
-6.608304 	 -15.072000 	
-6.598299 	 -15.048000 	
-6.588294 	 -15.028000 	
-6.578289 	 -15.008000 	
-6.568284 	 -14.985000 	
-6.558279 	 -14.966000 	
-6.548274 	 -14.943000 	
-6.538269 	 -14.924000 	
-6.528264 	 -14.901000 	
-6.518259 	 -14.882000 	
-6.508254 	 -14.858000 	
-6.498249 	 -14.838000 	
-6.488244 	 -14.813000 	
-6.478239 	 -14.793000 	
-6.468234 	 -14.769000 	
-6.458229 	 -14.749000 	
-6.448224 	 -14.727000 	
-6.438219 	 -14.708000 	
-6.428214 	 -14.685000 	
-6.418209 	 -14.666000 	
-6.408204 	 -14.643000 	
-6.398199 	 -14.623000 	
-6.388194 	 -14.599000 	
-6.378189 	 -14.579000 	
-6.368184 	 -14.559000 	
-6.358179 	 -14.536000 	
-6.348174 	 -14.517000 	
-6.338169 	 -14.495000 	
-6.328164 	 -14.476000 	
-6.318159 	 -14.453000 	
-6.308154 	 -14.433000 	
-6.298149 	 -14.410000 	
-6.288144 	 -14.390000 	
-6.278139 	 -14.370000 	
-6.268134 	 -14.347000 	
-6.258129 	 -14.327000 	
-6.248124 	 -14.304000 	
-6.238119 	 -14.285000 	
-6.228114 	 -14.261000 	
-6.218109 	 -14.241000 	
-6.208104 	 -14.217000 	
-6.198099 	 -14.197000 	
-6.188094 	 -14.174000 	
-6.178089 	 -14.155000 	
-6.168084 	 -14.132000 	
-6.158079 	 -14.112000 	
-6.148074 	 -14.089000 	
-6.138069 	 -14.069000 	
-6.128064 	 -14.047000 	
-6.118059 	 -14.027000 	
-6.108054 	 -14.008000 	
-6.098049 	 -13.986000 	
-6.088044 	 -13.963000 	
-6.078039 	 -13.944000 	
-6.068034 	 -13.924000 	
-6.058029 	 -13.900000 	
-6.048024 	 -13.880000 	
-6.038019 	 -13.856000 	
-6.028014 	 -13.836000 	
-6.018009 	 -13.813000 	
-6.008004 	 -13.794000 	
-5.997999 	 -13.772000 	
-5.987994 	 -13.753000 	
-5.977989 	 -13.730000 	
-5.967984 	 -13.710000 	
-5.957979 	 -13.690000 	
-5.947974 	 -13.666000 	
-5.937969 	 -13.646000 	
-5.927964 	 -13.622000 	
-5.917959 	 -13.603000 	
-5.907954 	 -13.580000 	
-5.897949 	 -13.561000 	
-5.887944 	 -13.539000 	
-5.877939 	 -13.520000 	
-5.867934 	 -13.496000 	
-5.857929 	 -13.476000 	
-5.847924 	 -13.452000 	
-5.837919 	 -13.432000 	
-5.827914 	 -13.408000 	
-5.817909 	 -13.389000 	
-5.807904 	 -13.369000 	
-5.797899 	 -13.346000 	
-5.787894 	 -13.327000 	
-5.777889 	 -13.304000 	
-5.767884 	 -13.285000 	
-5.757879 	 -13.261000 	
-5.747874 	 -13.240000 	
-5.737869 	 -13.216000 	
-5.727864 	 -13.195000 	
-5.717859 	 -13.171000 	
-5.707854 	 -13.151000 	
-5.697849 	 -13.132000 	
-5.687844 	 -13.109000 	
-5.677839 	 -13.090000 	
-5.667834 	 -13.067000 	
-5.657829 	 -13.048000 	
-5.647824 	 -13.025000 	
-5.637819 	 -13.005000 	
-5.627814 	 -12.981000 	
-5.617809 	 -12.961000 	
-5.607804 	 -12.937000 	
-5.597799 	 -12.918000 	
-5.587794 	 -12.898000 	
-5.577789 	 -12.875000 	
-5.567784 	 -12.852000 	
-5.557779 	 -12.832000 	
-5.547774 	 -12.813000 	
-5.537769 	 -12.789000 	
-5.527764 	 -12.765000 	
-5.517759 	 -12.745000 	
-5.507754 	 -12.725000 	
-5.497749 	 -12.702000 	
-5.487744 	 -12.683000 	
-5.477739 	 -12.661000 	
-5.467734 	 -12.642000 	
-5.457729 	 -12.619000 	
-5.447724 	 -12.599000 	
-5.437719 	 -12.576000 	
-5.427714 	 -12.557000 	
-5.417709 	 -12.533000 	
-5.407704 	 -12.509000 	
-5.397699 	 -12.489000 	
-5.387694 	 -12.465000 	
-5.377689 	 -12.445000 	
-5.367684 	 -12.426000 	
-5.357679 	 -12.404000 	
-5.347674 	 -12.384000 	
-5.337669 	 -12.361000 	
-5.327664 	 -12.341000 	
-5.317659 	 -12.317000 	
-5.307654 	 -12.297000 	
-5.297649 	 -12.273000 	
-5.287644 	 -12.253000 	
-5.277639 	 -12.230000 	
-5.267634 	 -12.211000 	
-5.257629 	 -12.192000 	
-5.247624 	 -12.168000 	
-5.237619 	 -12.149000 	
-5.227614 	 -12.125000 	
-5.217609 	 -12.106000 	
-5.207604 	 -12.082000 	
-5.197599 	 -12.058000 	
-5.187594 	 -12.039000 	
-5.177589 	 -12.019000 	
-5.167584 	 -11.995000 	
-5.157579 	 -11.972000 	
-5.147574 	 -11.952000 	
-5.137569 	 -11.929000 	
-5.127564 	 -11.911000 	
-5.117559 	 -11.889000 	
-5.107554 	 -11.870000 	
-5.097549 	 -11.850000 	
-5.087544 	 -11.825000 	
-5.077539 	 -11.804000 	
-5.067534 	 -11.783000 	
-5.057529 	 -11.759000 	
-5.047524 	 -11.739000 	
-5.037519 	 -11.716000 	
-5.027514 	 -11.697000 	
-5.017509 	 -11.674000 	
-5.007504 	 -11.651000 	
-4.997499 	 -11.631000 	
-4.987494 	 -11.611000 	
-4.977489 	 -11.587000 	
-4.967484 	 -11.567000 	
-4.957479 	 -11.542000 	
-4.947474 	 -11.523000 	
-4.937469 	 -11.500000 	
-4.927464 	 -11.477000 	
-4.917459 	 -11.458000 	
-4.907454 	 -11.439000 	
-4.897449 	 -11.415000 	
-4.887444 	 -11.395000 	
-4.877439 	 -11.371000 	
-4.867434 	 -11.351000 	
-4.857429 	 -11.328000 	
-4.847424 	 -11.308000 	
-4.837419 	 -11.285000 	
-4.827414 	 -11.266000 	
-4.817409 	 -11.247000 	
-4.807404 	 -11.224000 	
-4.797399 	 -11.200000 	
-4.787394 	 -11.180000 	
-4.777389 	 -11.156000 	
-4.767384 	 -11.136000 	
-4.757379 	 -11.111000 	
-4.747374 	 -11.091000 	
-4.737369 	 -11.071000 	
-4.727364 	 -11.048000 	
-4.717359 	 -11.025000 	
-4.707354 	 -11.005000 	
-4.697349 	 -10.986000 	
-4.687344 	 -10.962000 	
-4.677339 	 -10.942000 	
-4.667334 	 -10.918000 	
-4.657329 	 -10.898000 	
-4.647324 	 -10.874000 	
-4.637319 	 -10.855000 	
-4.627314 	 -10.835000 	
-4.617309 	 -10.810000 	
-4.607304 	 -10.786000 	
-4.597299 	 -10.766000 	
-4.587294 	 -10.747000 	
-4.577289 	 -10.725000 	
-4.567284 	 -10.705000 	
-4.557279 	 -10.682000 	
-4.547274 	 -10.661000 	
-4.537269 	 -10.637000 	
-4.527264 	 -10.616000 	
-4.517259 	 -10.595000 	
-4.507254 	 -10.570000 	
-4.497249 	 -10.550000 	
-4.487244 	 -10.527000 	
-4.477239 	 -10.507000 	
-4.467234 	 -10.484000 	
-4.457229 	 -10.464000 	
-4.447224 	 -10.440000 	
-4.437219 	 -10.419000 	
-4.427214 	 -10.395000 	
-4.417209 	 -10.374000 	
-4.407204 	 -10.355000 	
-4.397199 	 -10.331000 	
-4.387194 	 -10.308000 	
-4.377189 	 -10.289000 	
-4.367184 	 -10.265000 	
-4.357179 	 -10.246000 	
-4.347174 	 -10.222000 	
-4.337169 	 -10.202000 	
-4.327164 	 -10.178000 	
-4.317159 	 -10.158000 	
-4.307154 	 -10.134000 	
-4.297149 	 -10.115000 	
-4.287144 	 -10.092000 	
-4.277139 	 -10.073000 	
-4.267134 	 -10.053000 	
-4.257129 	 -10.028000 	
-4.247124 	 -10.008000 	
-4.237119 	 -9.984000 	
-4.227114 	 -9.964000 	
-4.217109 	 -9.940000 	
-4.207104 	 -9.920000 	
-4.197099 	 -9.896000 	
-4.187094 	 -9.876000 	
-4.177089 	 -9.852000 	
-4.167084 	 -9.832000 	
-4.157079 	 -9.812000 	
-4.147074 	 -9.788000 	
-4.137069 	 -9.764000 	
-4.127064 	 -9.744000 	
-4.117059 	 -9.723000 	
-4.107054 	 -9.699000 	
-4.097049 	 -9.679000 	
-4.087044 	 -9.655000 	
-4.077039 	 -9.635000 	
-4.067034 	 -9.611000 	
-4.057029 	 -9.591000 	
-4.047024 	 -9.567000 	
-4.037019 	 -9.547000 	
-4.027014 	 -9.523000 	
-4.017009 	 -9.502000 	
-4.007004 	 -9.481000 	
-3.996998 	 -9.457000 	
-3.986993 	 -9.432000 	
-3.976988 	 -9.412000 	
-3.966983 	 -9.392000 	
-3.956978 	 -9.369000 	
-3.946973 	 -9.349000 	
-3.936968 	 -9.324000 	
-3.926963 	 -9.303000 	
-3.916958 	 -9.278000 	
-3.906953 	 -9.258000 	
-3.896948 	 -9.238000 	
-3.886943 	 -9.214000 	
-3.876938 	 -9.190000 	
-3.866933 	 -9.170000 	
-3.856928 	 -9.146000 	
-3.846923 	 -9.127000 	
-3.836918 	 -9.103000 	
-3.826913 	 -9.082000 	
-3.816908 	 -9.057000 	
-3.806903 	 -9.032000 	
-3.796898 	 -9.011000 	
-3.786893 	 -8.991000 	
-3.776888 	 -8.967000 	
-3.766883 	 -8.943000 	
-3.756878 	 -8.923000 	
-3.746873 	 -8.903000 	
-3.736868 	 -8.878000 	
-3.726863 	 -8.853000 	
-3.716858 	 -8.833000 	
-3.706853 	 -8.813000 	
-3.696848 	 -8.789000 	
-3.686843 	 -8.769000 	
-3.676838 	 -8.744000 	
-3.666833 	 -8.723000 	
-3.656828 	 -8.698000 	
-3.646823 	 -8.678000 	
-3.636818 	 -8.653000 	
-3.626813 	 -8.632000 	
-3.616808 	 -8.607000 	
-3.606803 	 -8.587000 	
-3.596798 	 -8.562000 	
-3.586793 	 -8.541000 	
-3.576788 	 -8.516000 	
-3.566783 	 -8.495000 	
-3.556778 	 -8.470000 	
-3.546773 	 -8.450000 	
-3.536768 	 -8.425000 	
-3.526763 	 -8.405000 	
-3.516758 	 -8.380000 	
-3.506753 	 -8.359000 	
-3.496748 	 -8.338000 	
-3.486743 	 -8.312000 	
-3.476738 	 -8.291000 	
-3.466733 	 -8.266000 	
-3.456728 	 -8.246000 	
-3.446723 	 -8.222000 	
-3.436718 	 -8.201000 	
-3.426713 	 -8.176000 	
-3.416708 	 -8.155000 	
-3.406703 	 -8.129000 	
-3.396698 	 -8.108000 	
-3.386693 	 -8.087000 	
-3.376688 	 -8.062000 	
-3.366683 	 -8.038000 	
-3.356678 	 -8.017000 	
-3.346673 	 -7.997000 	
-3.336668 	 -7.972000 	
-3.326663 	 -7.951000 	
-3.316658 	 -7.926000 	
-3.306653 	 -7.905000 	
-3.296648 	 -7.879000 	
-3.286643 	 -7.858000 	
-3.276638 	 -7.833000 	
-3.266633 	 -7.812000 	
-3.256628 	 -7.787000 	
-3.246623 	 -7.766000 	
-3.236618 	 -7.741000 	
-3.226613 	 -7.720000 	
-3.216608 	 -7.694000 	
-3.206603 	 -7.673000 	
-3.196598 	 -7.648000 	
-3.186593 	 -7.627000 	
-3.176588 	 -7.602000 	
-3.166583 	 -7.581000 	
-3.156578 	 -7.560000 	
-3.146573 	 -7.535000 	
-3.136568 	 -7.510000 	
-3.126563 	 -7.489000 	
-3.116558 	 -7.468000 	
-3.106553 	 -7.443000 	
-3.096548 	 -7.417000 	
-3.086543 	 -7.395000 	
-3.076538 	 -7.373000 	
-3.066533 	 -7.346000 	
-3.056528 	 -7.325000 	
-3.046523 	 -7.300000 	
-3.036518 	 -7.280000 	
-3.026513 	 -7.254000 	
-3.016508 	 -7.233000 	
-3.006503 	 -7.207000 	
-2.996498 	 -7.186000 	
-2.986493 	 -7.161000 	
-2.976488 	 -7.140000 	
-2.966483 	 -7.115000 	
-2.956478 	 -7.094000 	
-2.946473 	 -7.074000 	
-2.936468 	 -7.049000 	
-2.926463 	 -7.024000 	
-2.916458 	 -7.002000 	
-2.906453 	 -6.981000 	
-2.896448 	 -6.955000 	
-2.886443 	 -6.933000 	
-2.876438 	 -6.908000 	
-2.866433 	 -6.887000 	
-2.856428 	 -6.862000 	
-2.846423 	 -6.841000 	
-2.836418 	 -6.815000 	
-2.826413 	 -6.794000 	
-2.816408 	 -6.768000 	
-2.806403 	 -6.747000 	
-2.796398 	 -6.721000 	
-2.786393 	 -6.700000 	
-2.776388 	 -6.674000 	
-2.766383 	 -6.653000 	
-2.756378 	 -6.632000 	
-2.746373 	 -6.607000 	
-2.736368 	 -6.582000 	
-2.726363 	 -6.561000 	
-2.716358 	 -6.540000 	
-2.706353 	 -6.514000 	
-2.696348 	 -6.489000 	
-2.686343 	 -6.468000 	
-2.676338 	 -6.446000 	
-2.666333 	 -6.422000 	
-2.656328 	 -6.401000 	
-2.646323 	 -6.377000 	
-2.636318 	 -6.356000 	
-2.626313 	 -6.331000 	
-2.616308 	 -6.309000 	
-2.606303 	 -6.283000 	
-2.596298 	 -6.261000 	
-2.586293 	 -6.234000 	
-2.576288 	 -6.213000 	
-2.566283 	 -6.189000 	
-2.556278 	 -6.168000 	
-2.546273 	 -6.144000 	
-2.536268 	 -6.123000 	
-2.526263 	 -6.098000 	
-2.516258 	 -6.076000 	
-2.506253 	 -6.050000 	
-2.496248 	 -6.028000 	
-2.486243 	 -6.002000 	
-2.476238 	 -5.981000 	
-2.466233 	 -5.959000 	
-2.456228 	 -5.934000 	
-2.446223 	 -5.913000 	
-2.436218 	 -5.887000 	
-2.426213 	 -5.866000 	
-2.416208 	 -5.840000 	
-2.406203 	 -5.818000 	
-2.396198 	 -5.796000 	
-2.386193 	 -5.770000 	
-2.376188 	 -5.749000 	
-2.366183 	 -5.724000 	
-2.356178 	 -5.702000 	
-2.346173 	 -5.676000 	
-2.336168 	 -5.655000 	
-2.326163 	 -5.628000 	
-2.316158 	 -5.607000 	
-2.306153 	 -5.581000 	
-2.296148 	 -5.559000 	
-2.286143 	 -5.533000 	
-2.276138 	 -5.511000 	
-2.266133 	 -5.489000 	
-2.256128 	 -5.462000 	
-2.246123 	 -5.441000 	
-2.236118 	 -5.415000 	
-2.226113 	 -5.389000 	
-2.216108 	 -5.368000 	
-2.206103 	 -5.342000 	
-2.196098 	 -5.321000 	
-2.186093 	 -5.296000 	
-2.176088 	 -5.275000 	
-2.166083 	 -5.254000 	
-2.156078 	 -5.228000 	
-2.146073 	 -5.207000 	
-2.136068 	 -5.182000 	
-2.126063 	 -5.161000 	
-2.116058 	 -5.134000 	
-2.106053 	 -5.112000 	
-2.096048 	 -5.086000 	
-2.086043 	 -5.064000 	
-2.076038 	 -5.037000 	
-2.066033 	 -5.016000 	
-2.056028 	 -4.995000 	
-2.046023 	 -4.970000 	
-2.036018 	 -4.944000 	
-2.026013 	 -4.921000 	
-2.016008 	 -4.899000 	
-2.006003 	 -4.873000 	
-1.995998 	 -4.851000 	
-1.985993 	 -4.824000 	
-1.975988 	 -4.803000 	
-1.965983 	 -4.777000 	
-1.955978 	 -4.756000 	
-1.945973 	 -4.733000 	
-1.935968 	 -4.706000 	
-1.925963 	 -4.684000 	
-1.915958 	 -4.657000 	
-1.905953 	 -4.636000 	
-1.895948 	 -4.610000 	
-1.885943 	 -4.588000 	
-1.875938 	 -4.562000 	
-1.865933 	 -4.540000 	
-1.855928 	 -4.514000 	
-1.845923 	 -4.493000 	
-1.835918 	 -4.471000 	
-1.825913 	 -4.445000 	
-1.815908 	 -4.419000 	
-1.805903 	 -4.397000 	
-1.795898 	 -4.376000 	
-1.785893 	 -4.349000 	
-1.775888 	 -4.323000 	
-1.765883 	 -4.301000 	
-1.755878 	 -4.280000 	
-1.745873 	 -4.254000 	
-1.735868 	 -4.233000 	
-1.725863 	 -4.207000 	
-1.715858 	 -4.184000 	
-1.705853 	 -4.158000 	
-1.695848 	 -4.136000 	
-1.685843 	 -4.109000 	
-1.675838 	 -4.087000 	
-1.665833 	 -4.062000 	
-1.655828 	 -4.040000 	
-1.645823 	 -4.018000 	
-1.635818 	 -3.992000 	
-1.625813 	 -3.970000 	
-1.615808 	 -3.943000 	
-1.605803 	 -3.921000 	
-1.595798 	 -3.894000 	
-1.585793 	 -3.873000 	
-1.575788 	 -3.851000 	
-1.565783 	 -3.826000 	
-1.555778 	 -3.800000 	
-1.545773 	 -3.779000 	
-1.535768 	 -3.752000 	
-1.525763 	 -3.730000 	
-1.515758 	 -3.703000 	
-1.505753 	 -3.681000 	
-1.495748 	 -3.660000 	
-1.485743 	 -3.637000 	
-1.475738 	 -3.618000 	
-1.465733 	 -3.597000 	
-1.455728 	 -3.578000 	
-1.445723 	 -3.554000 	
-1.435718 	 -3.532000 	
-1.425713 	 -3.505000 	
-1.415708 	 -3.482000 	
-1.405703 	 -3.456000 	
-1.395698 	 -3.434000 	
-1.385693 	 -3.412000 	
-1.375688 	 -3.387000 	
-1.365683 	 -3.361000 	
-1.355678 	 -3.339000 	
-1.345673 	 -3.313000 	
-1.335668 	 -3.291000 	
-1.325663 	 -3.269000 	
-1.315658 	 -3.243000 	
-1.305653 	 -3.221000 	
-1.295648 	 -3.194000 	
-1.285643 	 -3.172000 	
-1.275638 	 -3.145000 	
-1.265633 	 -3.124000 	
-1.255628 	 -3.098000 	
-1.245623 	 -3.076000 	
-1.235618 	 -3.050000 	
-1.225613 	 -3.027000 	
-1.215608 	 -3.001000 	
-1.205603 	 -2.979000 	
-1.195598 	 -2.952000 	
-1.185593 	 -2.931000 	
-1.175588 	 -2.909000 	
-1.165583 	 -2.883000 	
-1.155578 	 -2.857000 	
-1.145573 	 -2.835000 	
-1.135568 	 -2.813000 	
-1.125563 	 -2.786000 	
-1.115558 	 -2.763000 	
-1.105553 	 -2.737000 	
-1.095548 	 -2.715000 	
-1.085543 	 -2.689000 	
-1.075538 	 -2.667000 	
-1.065533 	 -2.642000 	
-1.055528 	 -2.620000 	
-1.045523 	 -2.593000 	
-1.035518 	 -2.571000 	
-1.025513 	 -2.549000 	
-1.015508 	 -2.522000 	
-1.005503 	 -2.496000 	
-0.995498 	 -2.474000 	
-0.985493 	 -2.448000 	
-0.975488 	 -2.427000 	
-0.965483 	 -2.402000 	
-0.955478 	 -2.381000 	
-0.945473 	 -2.359000 	
-0.935468 	 -2.332000 	
-0.925463 	 -2.305000 	
-0.915458 	 -2.283000 	
-0.905453 	 -2.261000 	
-0.895448 	 -2.235000 	
-0.885443 	 -2.214000 	
-0.875438 	 -2.188000 	
-0.865433 	 -2.166000 	
-0.855428 	 -2.139000 	
-0.845423 	 -2.116000 	
-0.835418 	 -2.089000 	
-0.825413 	 -2.067000 	
-0.815408 	 -2.041000 	
-0.805403 	 -2.019000 	
-0.795398 	 -1.993000 	
-0.785393 	 -1.972000 	
-0.775388 	 -1.946000 	
-0.765383 	 -1.924000 	
-0.755378 	 -1.898000 	
-0.745373 	 -1.876000 	
-0.735368 	 -1.850000 	
-0.725363 	 -1.828000 	
-0.715358 	 -1.802000 	
-0.705353 	 -1.780000 	
-0.695348 	 -1.758000 	
-0.685343 	 -1.732000 	
-0.675338 	 -1.711000 	
-0.665333 	 -1.684000 	
-0.655328 	 -1.662000 	
-0.645323 	 -1.635000 	
-0.635318 	 -1.613000 	
-0.625313 	 -1.586000 	
-0.615308 	 -1.564000 	
-0.605303 	 -1.538000 	
-0.595298 	 -1.516000 	
-0.585293 	 -1.491000 	
-0.575288 	 -1.469000 	
-0.565283 	 -1.443000 	
-0.555278 	 -1.420000 	
-0.545273 	 -1.393000 	
-0.535268 	 -1.371000 	
-0.525263 	 -1.344000 	
-0.515258 	 -1.322000 	
-0.505253 	 -1.301000 	
-0.495248 	 -1.275000 	
-0.485243 	 -1.249000 	
-0.475238 	 -1.226000 	
-0.465233 	 -1.204000 	
-0.455228 	 -1.177000 	
-0.445223 	 -1.150000 	
-0.435218 	 -1.128000 	
-0.425213 	 -1.107000 	
-0.415208 	 -1.081000 	
-0.405203 	 -1.059000 	
-0.395198 	 -1.033000 	
-0.385193 	 -1.011000 	
-0.375188 	 -0.984000 	
-0.365183 	 -0.962000 	
-0.355178 	 -0.936000 	
-0.345173 	 -0.913000 	
-0.335168 	 -0.887000 	
-0.325163 	 -0.865000 	
-0.315158 	 -0.843000 	
-0.305153 	 -0.817000 	
-0.295148 	 -0.795000 	
-0.285143 	 -0.769000 	
-0.275138 	 -0.747000 	
-0.265133 	 -0.720000 	
-0.255128 	 -0.698000 	
-0.245123 	 -0.676000 	
-0.235118 	 -0.649000 	
-0.225113 	 -0.627000 	
-0.215108 	 -0.601000 	
-0.205103 	 -0.580000 	
-0.195098 	 -0.554000 	
-0.185093 	 -0.532000 	
-0.175088 	 -0.510000 	
-0.165083 	 -0.482000 	
-0.155078 	 -0.454000 	
-0.145073 	 -0.432000 	
-0.135068 	 -0.410000 	
-0.125063 	 -0.385000 	
-0.115058 	 -0.360000 	
-0.105053 	 -0.338000 	
-0.095048 	 -0.316000 	
-0.085043 	 -0.289000 	
-0.075038 	 -0.262000 	
-0.065033 	 -0.239000 	
-0.055028 	 -0.217000 	
-0.045023 	 -0.191000 	
-0.035018 	 -0.169000 	
-0.025013 	 -0.144000 	
-0.015008 	 -0.122000 	
-0.005003 	 -0.096000 	
0.005003 	 -0.074000 	
0.015008 	 -0.047000 	
0.025013 	 -0.024000 	
0.035018 	 0.003000 	
0.045023 	 0.026000 	
0.055028 	 0.048000 	
0.065033 	 0.075000 	
0.075038 	 0.097000 	
0.085043 	 0.123000 	
0.095048 	 0.145000 	
0.105053 	 0.172000 	
0.115058 	 0.195000 	
0.125063 	 0.222000 	
0.135068 	 0.245000 	
0.145073 	 0.272000 	
0.155078 	 0.294000 	
0.165083 	 0.316000 	
0.175088 	 0.342000 	
0.185093 	 0.369000 	
0.195098 	 0.391000 	
0.205103 	 0.417000 	
0.215108 	 0.438000 	
0.225113 	 0.465000 	
0.235118 	 0.487000 	
0.245123 	 0.514000 	
0.255128 	 0.536000 	
0.265133 	 0.558000 	
0.275138 	 0.584000 	
0.285143 	 0.610000 	
0.295148 	 0.632000 	
0.305153 	 0.654000 	
0.315158 	 0.681000 	
0.325163 	 0.708000 	
0.335168 	 0.730000 	
0.345173 	 0.752000 	
0.355178 	 0.778000 	
0.365183 	 0.804000 	
0.375188 	 0.826000 	
0.385193 	 0.848000 	
0.395198 	 0.875000 	
0.405203 	 0.897000 	
0.415208 	 0.923000 	
0.425213 	 0.945000 	
0.435218 	 0.972000 	
0.445223 	 0.994000 	
0.455228 	 1.015000 	
0.465233 	 1.042000 	
0.475238 	 1.068000 	
0.485243 	 1.090000 	
0.495248 	 1.117000 	
0.505253 	 1.139000 	
0.515258 	 1.165000 	
0.525263 	 1.188000 	
0.535268 	 1.210000 	
0.545273 	 1.236000 	
0.555278 	 1.262000 	
0.565283 	 1.284000 	
0.575288 	 1.305000 	
0.585293 	 1.331000 	
0.595298 	 1.353000 	
0.605303 	 1.379000 	
0.615308 	 1.402000 	
0.625313 	 1.429000 	
0.635318 	 1.451000 	
0.645323 	 1.477000 	
0.655328 	 1.499000 	
0.665333 	 1.525000 	
0.675338 	 1.547000 	
0.685343 	 1.570000 	
0.695348 	 1.597000 	
0.705353 	 1.619000 	
0.715358 	 1.646000 	
0.725363 	 1.668000 	
0.735368 	 1.694000 	
0.745373 	 1.716000 	
0.755378 	 1.742000 	
0.765383 	 1.763000 	
0.775388 	 1.785000 	
0.785393 	 1.812000 	
0.795398 	 1.834000 	
0.805403 	 1.861000 	
0.815408 	 1.884000 	
0.825413 	 1.910000 	
0.835418 	 1.936000 	
0.845423 	 1.958000 	
0.855428 	 1.979000 	
0.865433 	 2.005000 	
0.875438 	 2.026000 	
0.885443 	 2.053000 	
0.895448 	 2.075000 	
0.905453 	 2.102000 	
0.915458 	 2.124000 	
0.925463 	 2.145000 	
0.935468 	 2.171000 	
0.945473 	 2.193000 	
0.955478 	 2.219000 	
0.965483 	 2.241000 	
0.975488 	 2.267000 	
0.985493 	 2.289000 	
0.995498 	 2.316000 	
1.005503 	 2.338000 	
1.015508 	 2.365000 	
1.025513 	 2.387000 	
1.035518 	 2.409000 	
1.045523 	 2.435000 	
1.055528 	 2.457000 	
1.065533 	 2.483000 	
1.075538 	 2.505000 	
1.085543 	 2.532000 	
1.095548 	 2.555000 	
1.105553 	 2.581000 	
1.115558 	 2.603000 	
1.125563 	 2.625000 	
1.135568 	 2.651000 	
1.145573 	 2.672000 	
1.155578 	 2.699000 	
1.165583 	 2.721000 	
1.175588 	 2.749000 	
1.185593 	 2.772000 	
1.195598 	 2.800000 	
1.205603 	 2.822000 	
1.215608 	 2.848000 	
1.225613 	 2.869000 	
1.235618 	 2.895000 	
1.245623 	 2.916000 	
1.255628 	 2.943000 	
1.265633 	 2.964000 	
1.275638 	 2.990000 	
1.285643 	 3.012000 	
1.295648 	 3.038000 	
1.305653 	 3.060000 	
1.315658 	 3.086000 	
1.325663 	 3.107000 	
1.335668 	 3.129000 	
1.345673 	 3.155000 	
1.355678 	 3.181000 	
1.365683 	 3.203000 	
1.375688 	 3.226000 	
1.385693 	 3.252000 	
1.395698 	 3.279000 	
1.405703 	 3.301000 	
1.415708 	 3.323000 	
1.425713 	 3.349000 	
1.435718 	 3.371000 	
1.445723 	 3.397000 	
1.455728 	 3.419000 	
1.465733 	 3.446000 	
1.475738 	 3.468000 	
1.485743 	 3.490000 	
1.495748 	 3.517000 	
1.505753 	 3.539000 	
1.515758 	 3.565000 	
1.525763 	 3.586000 	
1.535768 	 3.612000 	
1.545773 	 3.634000 	
1.555778 	 3.656000 	
1.565783 	 3.683000 	
1.575788 	 3.710000 	
1.585793 	 3.733000 	
1.595798 	 3.756000 	
1.605803 	 3.780000 	
1.615808 	 3.799000 	
1.625813 	 3.822000 	
1.635818 	 3.840000 	
1.645823 	 3.863000 	
1.655828 	 3.884000 	
1.665833 	 3.908000 	
1.675838 	 3.930000 	
1.685843 	 3.956000 	
1.695848 	 3.978000 	
1.705853 	 4.001000 	
1.715858 	 4.028000 	
1.725863 	 4.050000 	
1.735868 	 4.076000 	
1.745873 	 4.098000 	
1.755878 	 4.124000 	
1.765883 	 4.146000 	
1.775888 	 4.168000 	
1.785893 	 4.194000 	
1.795898 	 4.221000 	
1.805903 	 4.243000 	
1.815908 	 4.265000 	
1.825913 	 4.291000 	
1.835918 	 4.318000 	
1.845923 	 4.340000 	
1.855928 	 4.362000 	
1.865933 	 4.388000 	
1.875938 	 4.414000 	
1.885943 	 4.435000 	
1.895948 	 4.457000 	
1.905953 	 4.483000 	
1.915958 	 4.504000 	
1.925963 	 4.531000 	
1.935968 	 4.552000 	
1.945973 	 4.579000 	
1.955978 	 4.600000 	
1.965983 	 4.626000 	
1.975988 	 4.648000 	
1.985993 	 4.674000 	
1.995998 	 4.696000 	
2.006003 	 4.718000 	
2.016008 	 4.743000 	
2.026013 	 4.765000 	
2.036018 	 4.791000 	
2.046023 	 4.813000 	
2.056028 	 4.839000 	
2.066033 	 4.861000 	
2.076038 	 4.886000 	
2.086043 	 4.908000 	
2.096048 	 4.934000 	
2.106053 	 4.956000 	
2.116058 	 4.977000 	
2.126063 	 5.003000 	
2.136068 	 5.025000 	
2.146073 	 5.051000 	
2.156078 	 5.072000 	
2.166083 	 5.098000 	
2.176088 	 5.120000 	
2.186093 	 5.142000 	
2.196098 	 5.168000 	
2.206103 	 5.190000 	
2.216108 	 5.216000 	
2.226113 	 5.238000 	
2.236118 	 5.264000 	
2.246123 	 5.286000 	
2.256128 	 5.312000 	
2.266133 	 5.333000 	
2.276138 	 5.359000 	
2.286143 	 5.380000 	
2.296148 	 5.402000 	
2.306153 	 5.427000 	
2.316158 	 5.453000 	
2.326163 	 5.475000 	
2.336168 	 5.501000 	
2.346173 	 5.522000 	
2.356178 	 5.548000 	
2.366183 	 5.569000 	
2.376188 	 5.596000 	
2.386193 	 5.617000 	
2.396198 	 5.643000 	
2.406203 	 5.665000 	
2.416208 	 5.687000 	
2.426213 	 5.713000 	
2.436218 	 5.735000 	
2.446223 	 5.760000 	
2.456228 	 5.782000 	
2.466233 	 5.807000 	
2.476238 	 5.829000 	
2.486243 	 5.854000 	
2.496248 	 5.876000 	
2.506253 	 5.901000 	
2.516258 	 5.922000 	
2.526263 	 5.948000 	
2.536268 	 5.969000 	
2.546273 	 5.994000 	
2.556278 	 6.016000 	
2.566283 	 6.041000 	
2.576288 	 6.063000 	
2.586293 	 6.085000 	
2.596298 	 6.110000 	
2.606303 	 6.132000 	
2.616308 	 6.157000 	
2.626313 	 6.179000 	
2.636318 	 6.205000 	
2.646323 	 6.226000 	
2.656328 	 6.252000 	
2.666333 	 6.273000 	
2.676338 	 6.299000 	
2.686343 	 6.320000 	
2.696348 	 6.345000 	
2.706353 	 6.366000 	
2.716358 	 6.391000 	
2.726363 	 6.413000 	
2.736368 	 6.434000 	
2.746373 	 6.459000 	
2.756378 	 6.484000 	
2.766383 	 6.506000 	
2.776388 	 6.527000 	
2.786393 	 6.553000 	
2.796398 	 6.578000 	
2.806403 	 6.599000 	
2.816408 	 6.621000 	
2.826413 	 6.647000 	
2.836418 	 6.668000 	
2.846423 	 6.689000 	
2.856428 	 6.714000 	
2.866433 	 6.735000 	
2.876438 	 6.760000 	
2.886443 	 6.781000 	
2.896448 	 6.807000 	
2.906453 	 6.828000 	
2.916458 	 6.853000 	
2.926463 	 6.874000 	
2.936468 	 6.895000 	
2.946473 	 6.920000 	
2.956478 	 6.946000 	
2.966483 	 6.967000 	
2.976488 	 6.988000 	
2.986493 	 7.014000 	
2.996498 	 7.036000 	
3.006503 	 7.062000 	
3.016508 	 7.083000 	
3.026513 	 7.109000 	
3.036518 	 7.131000 	
3.046523 	 7.153000 	
3.056528 	 7.179000 	
3.066533 	 7.204000 	
3.076538 	 7.225000 	
3.086543 	 7.246000 	
3.096548 	 7.271000 	
3.106553 	 7.292000 	
3.116558 	 7.317000 	
3.126563 	 7.338000 	
3.136568 	 7.364000 	
3.146573 	 7.384000 	
3.156578 	 7.405000 	
3.166583 	 7.430000 	
3.176588 	 7.455000 	
3.186593 	 7.476000 	
3.196598 	 7.498000 	
3.206603 	 7.524000 	
3.216608 	 7.550000 	
3.226613 	 7.571000 	
3.236618 	 7.596000 	
3.246623 	 7.617000 	
3.256628 	 7.637000 	
3.266633 	 7.661000 	
3.276638 	 7.682000 	
3.286643 	 7.708000 	
3.296648 	 7.730000 	
3.306653 	 7.756000 	
3.316658 	 7.777000 	
3.326663 	 7.801000 	
3.336668 	 7.821000 	
3.346673 	 7.846000 	
3.356678 	 7.867000 	
3.366683 	 7.894000 	
3.376688 	 7.915000 	
3.386693 	 7.936000 	
3.396698 	 7.962000 	
3.406703 	 7.983000 	
3.416708 	 8.008000 	
3.426713 	 8.033000 	
3.436718 	 8.054000 	
3.446723 	 8.074000 	
3.456728 	 8.098000 	
3.466733 	 8.118000 	
3.476738 	 8.139000 	
3.486743 	 8.165000 	
3.496748 	 8.187000 	
3.506753 	 8.213000 	
3.516758 	 8.234000 	
3.526763 	 8.259000 	
3.536768 	 8.279000 	
3.546773 	 8.304000 	
3.556778 	 8.324000 	
3.566783 	 8.349000 	
3.576788 	 8.370000 	
3.586793 	 8.391000 	
3.596798 	 8.416000 	
3.606803 	 8.437000 	
3.616808 	 8.462000 	
3.626813 	 8.483000 	
3.636818 	 8.508000 	
3.646823 	 8.528000 	
3.656828 	 8.553000 	
3.666833 	 8.573000 	
3.676838 	 8.598000 	
3.686843 	 8.619000 	
3.696848 	 8.644000 	
3.706853 	 8.664000 	
3.716858 	 8.689000 	
3.726863 	 8.710000 	
3.736868 	 8.735000 	
3.746873 	 8.755000 	
3.756878 	 8.780000 	
3.766883 	 8.800000 	
3.776888 	 8.821000 	
3.786893 	 8.846000 	
3.796898 	 8.871000 	
3.806903 	 8.892000 	
3.816908 	 8.913000 	
3.826913 	 8.937000 	
3.836918 	 8.958000 	
3.846923 	 8.983000 	
3.856928 	 9.003000 	
3.866933 	 9.028000 	
3.876938 	 9.048000 	
3.886943 	 9.073000 	
3.896948 	 9.093000 	
3.906953 	 9.118000 	
3.916958 	 9.138000 	
3.926963 	 9.162000 	
3.936968 	 9.183000 	
3.946973 	 9.207000 	
3.956978 	 9.227000 	
3.966983 	 9.252000 	
3.976988 	 9.272000 	
3.986993 	 9.296000 	
3.996998 	 9.317000 	
4.007004 	 9.341000 	
4.017009 	 9.361000 	
4.027014 	 9.385000 	
4.037019 	 9.405000 	
4.047024 	 9.425000 	
4.057029 	 9.449000 	
4.067034 	 9.470000 	
4.077039 	 9.494000 	
4.087044 	 9.514000 	
4.097049 	 9.538000 	
4.107054 	 9.559000 	
4.117059 	 9.579000 	
4.127064 	 9.603000 	
4.137069 	 9.627000 	
4.147074 	 9.647000 	
4.157079 	 9.667000 	
4.167084 	 9.691000 	
4.177089 	 9.711000 	
4.187094 	 9.735000 	
4.197099 	 9.756000 	
4.207104 	 9.780000 	
4.217109 	 9.801000 	
4.227114 	 9.825000 	
4.237119 	 9.845000 	
4.247124 	 9.869000 	
4.257129 	 9.890000 	
4.267134 	 9.914000 	
4.277139 	 9.934000 	
4.287144 	 9.954000 	
4.297149 	 9.977000 	
4.307154 	 9.997000 	
4.317159 	 10.021000 	
4.327164 	 10.041000 	
4.337169 	 10.065000 	
4.347174 	 10.085000 	
4.357179 	 10.109000 	
4.367184 	 10.129000 	
4.377189 	 10.148000 	
4.387194 	 10.172000 	
4.397199 	 10.192000 	
4.407204 	 10.216000 	
4.417209 	 10.236000 	
4.427214 	 10.260000 	
4.437219 	 10.281000 	
4.447224 	 10.305000 	
4.457229 	 10.325000 	
4.467234 	 10.349000 	
4.477239 	 10.369000 	
4.487244 	 10.392000 	
4.497249 	 10.412000 	
4.507254 	 10.436000 	
4.517259 	 10.456000 	
4.527264 	 10.476000 	
4.537269 	 10.499000 	
4.547274 	 10.519000 	
4.557279 	 10.543000 	
4.567284 	 10.563000 	
4.577289 	 10.587000 	
4.587294 	 10.606000 	
4.597299 	 10.630000 	
4.607304 	 10.649000 	
4.617309 	 10.673000 	
4.627314 	 10.693000 	
4.637319 	 10.718000 	
4.647324 	 10.738000 	
4.657329 	 10.762000 	
4.667334 	 10.782000 	
4.677339 	 10.806000 	
4.687344 	 10.826000 	
4.697349 	 10.846000 	
4.707354 	 10.869000 	
4.717359 	 10.893000 	
4.727364 	 10.913000 	
4.737369 	 10.936000 	
4.747374 	 10.956000 	
4.757379 	 10.980000 	
4.767384 	 11.000000 	
4.777389 	 11.020000 	
4.787394 	 11.043000 	
4.797399 	 11.063000 	
4.807404 	 11.086000 	
4.817409 	 11.106000 	
4.827414 	 11.129000 	
4.837419 	 11.149000 	
4.847424 	 11.169000 	
4.857429 	 11.193000 	
4.867434 	 11.213000 	
4.877439 	 11.237000 	
4.887444 	 11.257000 	
4.897449 	 11.281000 	
4.907454 	 11.301000 	
4.917459 	 11.320000 	
4.927464 	 11.344000 	
4.937469 	 11.363000 	
4.947474 	 11.387000 	
4.957479 	 11.407000 	
4.967484 	 11.431000 	
4.977489 	 11.450000 	
4.987494 	 11.474000 	
4.997499 	 11.493000 	
5.007504 	 11.517000 	
5.017509 	 11.537000 	
5.027514 	 11.560000 	
5.037519 	 11.580000 	
5.047524 	 11.603000 	
5.057529 	 11.623000 	
5.067534 	 11.647000 	
5.077539 	 11.667000 	
5.087544 	 11.691000 	
5.097549 	 11.711000 	
5.107554 	 11.731000 	
5.117559 	 11.755000 	
5.127564 	 11.778000 	
5.137569 	 11.798000 	
5.147574 	 11.817000 	
5.157579 	 11.840000 	
5.167584 	 11.864000 	
5.177589 	 11.884000 	
5.187594 	 11.904000 	
5.197599 	 11.927000 	
5.207604 	 11.947000 	
5.217609 	 11.970000 	
5.227614 	 11.990000 	
5.237619 	 12.013000 	
5.247624 	 12.032000 	
5.257629 	 12.056000 	
5.267634 	 12.076000 	
5.277639 	 12.099000 	
5.287644 	 12.119000 	
5.297649 	 12.143000 	
5.307654 	 12.163000 	
5.317659 	 12.186000 	
5.327664 	 12.206000 	
5.337669 	 12.226000 	
5.347674 	 12.249000 	
5.357679 	 12.272000 	
5.367684 	 12.292000 	
5.377689 	 12.311000 	
5.387694 	 12.335000 	
5.397699 	 12.354000 	
5.407704 	 12.374000 	
5.417709 	 12.397000 	
5.427714 	 12.417000 	
5.437719 	 12.440000 	
5.447724 	 12.460000 	
5.457729 	 12.484000 	
5.467734 	 12.503000 	
5.477739 	 12.527000 	
5.487744 	 12.547000 	
5.497749 	 12.571000 	
5.507754 	 12.591000 	
5.517759 	 12.611000 	
5.527764 	 12.635000 	
5.537769 	 12.659000 	
5.547774 	 12.679000 	
5.557779 	 12.698000 	
5.567784 	 12.722000 	
5.577789 	 12.741000 	
5.587794 	 12.765000 	
5.597799 	 12.784000 	
5.607804 	 12.807000 	
5.617809 	 12.826000 	
5.627814 	 12.849000 	
5.637819 	 12.869000 	
5.647824 	 12.892000 	
5.657829 	 12.911000 	
5.667834 	 12.934000 	
5.677839 	 12.953000 	
5.687844 	 12.973000 	
5.697849 	 12.997000 	
5.707854 	 13.018000 	
5.717859 	 13.042000 	
5.727864 	 13.063000 	
5.737869 	 13.087000 	
5.747874 	 13.107000 	
5.757879 	 13.131000 	
5.767884 	 13.151000 	
5.777889 	 13.170000 	
5.787894 	 13.193000 	
5.797899 	 13.216000 	
5.807904 	 13.236000 	
5.817909 	 13.255000 	
5.827914 	 13.279000 	
5.837919 	 13.298000 	
5.847924 	 13.321000 	
5.857929 	 13.341000 	
5.867934 	 13.364000 	
5.877939 	 13.383000 	
5.887944 	 13.403000 	
5.897949 	 13.426000 	
5.907954 	 13.449000 	
5.917959 	 13.469000 	
5.927964 	 13.489000 	
5.937969 	 13.513000 	
5.947974 	 13.532000 	
5.957979 	 13.556000 	
5.967984 	 13.576000 	
5.977989 	 13.600000 	
5.987994 	 13.619000 	
5.997999 	 13.638000 	
6.008004 	 13.661000 	
6.018009 	 13.685000 	
6.028014 	 13.704000 	
6.038019 	 13.723000 	
6.048024 	 13.747000 	
6.058029 	 13.770000 	
6.068034 	 13.790000 	
6.078039 	 13.810000 	
6.088044 	 13.833000 	
6.098049 	 13.852000 	
6.108054 	 13.875000 	
6.118059 	 13.894000 	
6.128064 	 13.917000 	
6.138069 	 13.937000 	
6.148074 	 13.961000 	
6.158079 	 13.980000 	
6.168084 	 14.004000 	
6.178089 	 14.024000 	
6.188094 	 14.043000 	
6.198099 	 14.067000 	
6.208104 	 14.086000 	
6.218109 	 14.109000 	
6.228114 	 14.128000 	
6.238119 	 14.151000 	
6.248124 	 14.171000 	
6.258129 	 14.194000 	
6.268134 	 14.214000 	
6.278139 	 14.237000 	
6.288144 	 14.256000 	
6.298149 	 14.280000 	
6.308154 	 14.299000 	
6.318159 	 14.322000 	
6.328164 	 14.341000 	
6.338169 	 14.364000 	
6.348174 	 14.384000 	
6.358179 	 14.404000 	
6.368184 	 14.427000 	
6.378189 	 14.451000 	
6.388194 	 14.471000 	
6.398199 	 14.490000 	
6.408204 	 14.514000 	
6.418209 	 14.537000 	
6.428214 	 14.557000 	
6.438219 	 14.576000 	
6.448224 	 14.599000 	
6.458229 	 14.618000 	
6.468234 	 14.641000 	
6.478239 	 14.661000 	
6.488244 	 14.684000 	
6.498249 	 14.704000 	
6.508254 	 14.727000 	
6.518259 	 14.746000 	
6.528264 	 14.769000 	
6.538269 	 14.788000 	
6.548274 	 14.811000 	
6.558279 	 14.830000 	
6.568284 	 14.853000 	
6.578289 	 14.873000 	
6.588294 	 14.893000 	
6.598299 	 14.917000 	
6.608304 	 14.941000 	
6.618309 	 14.961000 	
6.628314 	 14.981000 	
6.638319 	 15.005000 	
6.648324 	 15.024000 	
6.658329 	 15.047000 	
6.668334 	 15.066000 	
6.678339 	 15.089000 	
6.688344 	 15.109000 	
6.698349 	 15.129000 	
6.708354 	 15.152000 	
6.718359 	 15.175000 	
6.728364 	 15.195000 	
6.738369 	 15.214000 	
6.748374 	 15.237000 	
6.758379 	 15.256000 	
6.768384 	 15.279000 	
6.778389 	 15.298000 	
6.788394 	 15.322000 	
6.798399 	 15.341000 	
6.808404 	 15.365000 	
6.818409 	 15.384000 	
6.828414 	 15.408000 	
6.838419 	 15.428000 	
6.848424 	 15.451000 	
6.858429 	 15.471000 	
6.868434 	 15.490000 	
6.878439 	 15.513000 	
6.888444 	 15.535000 	
6.898449 	 15.555000 	
6.908454 	 15.574000 	
6.918459 	 15.597000 	
6.928464 	 15.617000 	
6.938469 	 15.640000 	
6.948474 	 15.660000 	
6.958479 	 15.683000 	
6.968484 	 15.702000 	
6.978489 	 15.721000 	
6.988494 	 15.744000 	
6.998499 	 15.767000 	
7.008504 	 15.786000 	
7.018509 	 15.806000 	
7.028514 	 15.829000 	
7.038519 	 15.849000 	
7.048524 	 15.872000 	
7.058529 	 15.892000 	
7.068534 	 15.915000 	
7.078539 	 15.934000 	
7.088544 	 15.953000 	
7.098549 	 15.976000 	
7.108554 	 15.995000 	
7.118559 	 16.018000 	
7.128564 	 16.037000 	
7.138569 	 16.061000 	
7.148574 	 16.080000 	
7.158579 	 16.104000 	
7.168584 	 16.123000 	
7.178589 	 16.146000 	
7.188594 	 16.165000 	
7.198599 	 16.188000 	
7.208604 	 16.207000 	
7.218609 	 16.230000 	
7.228614 	 16.249000 	
7.238619 	 16.269000 	
7.248624 	 16.293000 	
7.258629 	 16.313000 	
7.268634 	 16.337000 	
7.278639 	 16.357000 	
7.288644 	 16.380000 	
7.298649 	 16.400000 	
7.308654 	 16.422000 	
7.318659 	 16.442000 	
7.328664 	 16.461000 	
7.338669 	 16.484000 	
7.348674 	 16.504000 	
7.358679 	 16.528000 	
7.368684 	 16.547000 	
7.378689 	 16.571000 	
7.388694 	 16.590000 	
7.398699 	 16.613000 	
7.408704 	 16.632000 	
7.418709 	 16.655000 	
7.428714 	 16.674000 	
7.438719 	 16.697000 	
7.448724 	 16.716000 	
7.458729 	 16.739000 	
7.468734 	 16.759000 	
7.478739 	 16.782000 	
7.488744 	 16.801000 	
7.498749 	 16.821000 	
7.508754 	 16.844000 	
7.518759 	 16.868000 	
7.528764 	 16.887000 	
7.538769 	 16.906000 	
7.548774 	 16.928000 	
7.558779 	 16.950000 	
7.568784 	 16.970000 	
7.578789 	 16.989000 	
7.588794 	 17.012000 	
7.598799 	 17.032000 	
7.608804 	 17.055000 	
7.618809 	 17.074000 	
7.628814 	 17.097000 	
7.638819 	 17.116000 	
7.648824 	 17.135000 	
7.658829 	 17.159000 	
7.668834 	 17.179000 	
7.678839 	 17.203000 	
7.688844 	 17.222000 	
7.698849 	 17.245000 	
7.708854 	 17.264000 	
7.718859 	 17.287000 	
7.728864 	 17.306000 	
7.738869 	 17.329000 	
7.748874 	 17.348000 	
7.758879 	 17.371000 	
7.768884 	 17.390000 	
7.778889 	 17.413000 	
7.788894 	 17.432000 	
7.798899 	 17.451000 	
7.808904 	 17.474000 	
7.818909 	 17.497000 	
7.828914 	 17.516000 	
7.838919 	 17.535000 	
7.848924 	 17.557000 	
7.858929 	 17.576000 	
7.868934 	 17.599000 	
7.878939 	 17.619000 	
7.888944 	 17.639000 	
7.898949 	 17.662000 	
7.908954 	 17.686000 	
7.918959 	 17.705000 	
7.928964 	 17.725000 	
7.938969 	 17.748000 	
7.948974 	 17.767000 	
7.958979 	 17.790000 	
7.968984 	 17.813000 	
7.978989 	 17.832000 	
7.988994 	 17.850000 	
7.998999 	 17.873000 	
8.009005 	 17.892000 	
8.019010 	 17.916000 	
8.029015 	 17.935000 	
8.039020 	 17.958000 	
8.049025 	 17.981000 	
8.059030 	 18.000000 	
8.069035 	 18.018000 	
8.079040 	 18.040000 	
8.089045 	 18.059000 	
8.099050 	 18.082000 	
8.109055 	 18.101000 	
8.119060 	 18.125000 	
8.129065 	 18.144000 	
8.139070 	 18.168000 	
8.149075 	 18.188000 	
8.159080 	 18.211000 	
8.169085 	 18.230000 	
8.179090 	 18.253000 	
8.189095 	 18.276000 	
8.199100 	 18.295000 	
8.209105 	 18.314000 	
8.219110 	 18.337000 	
8.229115 	 18.356000 	
8.239120 	 18.379000 	
8.249125 	 18.399000 	
8.259130 	 18.422000 	
8.269135 	 18.441000 	
8.279140 	 18.464000 	
8.289145 	 18.483000 	
8.299150 	 18.505000 	
8.309155 	 18.524000 	
8.319160 	 18.546000 	
8.329165 	 18.565000 	
8.339170 	 18.588000 	
8.349175 	 18.609000 	
8.359180 	 18.632000 	
8.369185 	 18.652000 	
8.379190 	 18.674000 	
8.389195 	 18.693000 	
8.399200 	 18.715000 	
8.409205 	 18.734000 	
8.419210 	 18.757000 	
8.429215 	 18.776000 	
8.439220 	 18.795000 	
8.449225 	 18.818000 	
8.459230 	 18.841000 	
8.469235 	 18.860000 	
8.479240 	 18.883000 	
8.489245 	 18.903000 	
8.499250 	 18.926000 	
8.509255 	 18.945000 	
8.519260 	 18.968000 	
8.529265 	 18.986000 	
8.539270 	 19.005000 	
8.549275 	 19.028000 	
8.559280 	 19.048000 	
8.569285 	 19.071000 	
8.579290 	 19.091000 	
8.589295 	 19.115000 	
8.599300 	 19.135000 	
8.609305 	 19.158000 	
8.619310 	 19.177000 	
8.629315 	 19.199000 	
8.639320 	 19.218000 	
8.649325 	 19.237000 	
8.659330 	 19.260000 	
8.669335 	 19.279000 	
8.679340 	 19.302000 	
8.689345 	 19.322000 	
8.699350 	 19.345000 	
8.709355 	 19.364000 	
8.719360 	 19.383000 	
8.729365 	 19.406000 	
8.739370 	 19.428000 	
8.749375 	 19.447000 	
8.759380 	 19.466000 	
8.769385 	 19.489000 	
8.779390 	 19.508000 	
8.789395 	 19.532000 	
8.799400 	 19.552000 	
8.809405 	 19.575000 	
8.819410 	 19.595000 	
8.829415 	 19.615000 	
8.839420 	 19.638000 	
8.849425 	 19.657000 	
8.859430 	 19.680000 	
8.869435 	 19.699000 	
8.879440 	 19.723000 	
8.889445 	 19.742000 	
8.899450 	 19.765000 	
8.909455 	 19.784000 	
8.919460 	 19.803000 	
8.929465 	 19.826000 	
8.939470 	 19.849000 	
8.949475 	 19.868000 	
8.959480 	 19.887000 	
8.969485 	 19.910000 	
8.979490 	 19.929000 	
8.989495 	 19.952000 	
8.999500 	 19.971000 	
9.009505 	 19.994000 	
9.019510 	 20.014000 	
9.029515 	 20.033000 	
9.039520 	 20.057000 	
9.049525 	 20.080000 	
9.059530 	 20.100000 	
9.069535 	 20.122000 	
9.079540 	 20.141000 	
9.089545 	 20.160000 	
9.099550 	 20.182000 	
9.109555 	 20.202000 	
9.119560 	 20.225000 	
9.129565 	 20.244000 	
9.139570 	 20.268000 	
9.149575 	 20.287000 	
9.159580 	 20.310000 	
9.169585 	 20.328000 	
9.179590 	 20.351000 	
9.189595 	 20.369000 	
9.199600 	 20.392000 	
9.209605 	 20.411000 	
9.219610 	 20.435000 	
9.229615 	 20.455000 	
9.239620 	 20.475000 	
9.249625 	 20.499000 	
9.259630 	 20.522000 	
9.269635 	 20.541000 	
9.279640 	 20.560000 	
9.289645 	 20.583000 	
9.299650 	 20.605000 	
9.309655 	 20.624000 	
9.319660 	 20.643000 	
9.329665 	 20.667000 	
9.339670 	 20.690000 	
9.349675 	 20.709000 	
9.359680 	 20.728000 	
9.369685 	 20.751000 	
9.379690 	 20.769000 	
9.389695 	 20.792000 	
9.399700 	 20.811000 	
9.409705 	 20.834000 	
9.419710 	 20.853000 	
9.429715 	 20.876000 	
9.439720 	 20.895000 	
9.449725 	 20.918000 	
9.459730 	 20.938000 	
9.469735 	 20.961000 	
9.479740 	 20.981000 	
9.489745 	 21.003000 	
9.499750 	 21.022000 	
9.509755 	 21.041000 	
9.519760 	 21.064000 	
9.529765 	 21.086000 	
9.539770 	 21.105000 	
9.549775 	 21.124000 	
9.559780 	 21.147000 	
9.569785 	 21.167000 	
9.579790 	 21.191000 	
9.589795 	 21.210000 	
9.599800 	 21.233000 	
9.609805 	 21.252000 	
9.619810 	 21.270000 	
9.629815 	 21.292000 	
9.639820 	 21.315000 	
9.649825 	 21.334000 	
9.659830 	 21.354000 	
9.669835 	 21.377000 	
9.679840 	 21.397000 	
9.689845 	 21.420000 	
9.699850 	 21.440000 	
9.709855 	 21.463000 	
9.719860 	 21.481000 	
9.729865 	 21.504000 	
9.739870 	 21.522000 	
9.749875 	 21.545000 	
9.759880 	 21.564000 	
9.769885 	 21.587000 	
9.779890 	 21.606000 	
9.789895 	 21.625000 	
9.799900 	 21.648000 	
9.809905 	 21.670000 	
9.819910 	 21.688000 	
9.829915 	 21.707000 	
9.839920 	 21.730000 	
9.849925 	 21.749000 	
9.859930 	 21.772000 	
9.869935 	 21.792000 	
9.879940 	 21.815000 	
9.889945 	 21.834000 	
9.899950 	 21.858000 	
9.909955 	 21.878000 	
9.919960 	 21.901000 	
9.929965 	 21.921000 	
9.939970 	 21.940000 	
9.949975 	 21.963000 	
9.959980 	 21.985000 	
9.969985 	 22.004000 	
9.979990 	 22.023000 	
9.989995 	 22.045000 	
10.000000 	 22.068000 	
Y-channel Current(A) vs Field(mT)
-5.885682 	 -21.698000 	
-5.879362 	 -21.675000 	
-5.873377 	 -21.657000 	
-5.867197 	 -21.638000 	
-5.861401 	 -21.615000 	
-5.855727 	 -21.596000 	
-5.849777 	 -21.574000 	
-5.843106 	 -21.554000 	
-5.837760 	 -21.531000 	
-5.831570 	 -21.512000 	
-5.825215 	 -21.489000 	
-5.819426 	 -21.466000 	
-5.813757 	 -21.447000 	
-5.807423 	 -21.429000 	
-5.801937 	 -21.408000 	
-5.795142 	 -21.390000 	
-5.789234 	 -21.368000 	
-5.783420 	 -21.348000 	
-5.777436 	 -21.325000 	
-5.771915 	 -21.305000 	
-5.765425 	 -21.285000 	
-5.759315 	 -21.261000 	
-5.753513 	 -21.242000 	
-5.747526 	 -21.219000 	
-5.741539 	 -21.201000 	
-5.735317 	 -21.183000 	
-5.729691 	 -21.161000 	
-5.723449 	 -21.138000 	
-5.717774 	 -21.119000 	
-5.711415 	 -21.100000 	
-5.705570 	 -21.076000 	
-5.699634 	 -21.056000 	
-5.693085 	 -21.033000 	
-5.687229 	 -21.014000 	
-5.681806 	 -20.992000 	
-5.675310 	 -20.973000 	
-5.669103 	 -20.951000 	
-5.663462 	 -20.933000 	
-5.657677 	 -20.910000 	
-5.650997 	 -20.891000 	
-5.644981 	 -20.871000 	
-5.639740 	 -20.847000 	
-5.633070 	 -20.824000 	
-5.627492 	 -20.805000 	
-5.621215 	 -20.786000 	
-5.615012 	 -20.763000 	
-5.609461 	 -20.745000 	
-5.602956 	 -20.722000 	
-5.597581 	 -20.703000 	
-5.591602 	 -20.680000 	
-5.584831 	 -20.661000 	
-5.579002 	 -20.638000 	
-5.573186 	 -20.619000 	
-5.567130 	 -20.595000 	
-5.561119 	 -20.576000 	
-5.555414 	 -20.557000 	
-5.549219 	 -20.534000 	
-5.543256 	 -20.515000 	
-5.536671 	 -20.493000 	
-5.530801 	 -20.474000 	
-5.524840 	 -20.452000 	
-5.518730 	 -20.433000 	
-5.512831 	 -20.410000 	
-5.506631 	 -20.391000 	
-5.501162 	 -20.367000 	
-5.495284 	 -20.347000 	
-5.488604 	 -20.327000 	
-5.482822 	 -20.304000 	
-5.477180 	 -20.284000 	
-5.470676 	 -20.261000 	
-5.464700 	 -20.242000 	
-5.458902 	 -20.220000 	
-5.453000 	 -20.201000 	
-5.447101 	 -20.178000 	
-5.440295 	 -20.159000 	
-5.434959 	 -20.135000 	
-5.428652 	 -20.115000 	
-5.422348 	 -20.092000 	
-5.416903 	 -20.074000 	
-5.410907 	 -20.052000 	
-5.404997 	 -20.034000 	
-5.398815 	 -20.012000 	
-5.392192 	 -19.989000 	
-5.386376 	 -19.970000 	
-5.380675 	 -19.950000 	
-5.374547 	 -19.926000 	
-5.368529 	 -19.903000 	
-5.362215 	 -19.883000 	
-5.356574 	 -19.864000 	
-5.350641 	 -19.842000 	
-5.344655 	 -19.823000 	
-5.338910 	 -19.801000 	
-5.332522 	 -19.782000 	
-5.326453 	 -19.759000 	
-5.320312 	 -19.740000 	
-5.314559 	 -19.717000 	
-5.308325 	 -19.697000 	
-5.302171 	 -19.674000 	
-5.296656 	 -19.655000 	
-5.290866 	 -19.632000 	
-5.284809 	 -19.613000 	
-5.278077 	 -19.594000 	
-5.272660 	 -19.572000 	
-5.266710 	 -19.550000 	
-5.260228 	 -19.532000 	
-5.254475 	 -19.514000 	
-5.248619 	 -19.491000 	
-5.242377 	 -19.472000 	
-5.236136 	 -19.448000 	
-5.230496 	 -19.428000 	
-5.224038 	 -19.404000 	
-5.218207 	 -19.384000 	
-5.212791 	 -19.362000 	
-5.206033 	 -19.343000 	
-5.200107 	 -19.320000 	
-5.194139 	 -19.302000 	
-5.188068 	 -19.283000 	
-5.181979 	 -19.260000 	
-5.176554 	 -19.240000 	
-5.170100 	 -19.216000 	
-5.164003 	 -19.196000 	
-5.158581 	 -19.173000 	
-5.152412 	 -19.154000 	
-5.146114 	 -19.131000 	
-5.140471 	 -19.113000 	
-5.133767 	 -19.091000 	
-5.128328 	 -19.072000 	
-5.122054 	 -19.049000 	
-5.116179 	 -19.030000 	
-5.110105 	 -19.006000 	
-5.103905 	 -18.986000 	
-5.097815 	 -18.966000 	
-5.092519 	 -18.943000 	
-5.086151 	 -18.920000 	
-5.080325 	 -18.902000 	
-5.074281 	 -18.880000 	
-5.067801 	 -18.862000 	
-5.062377 	 -18.840000 	
-5.056390 	 -18.821000 	
-5.050492 	 -18.802000 	
-5.044578 	 -18.778000 	
-5.038081 	 -18.758000 	
-5.032325 	 -18.735000 	
-5.026589 	 -18.715000 	
-5.019848 	 -18.692000 	
-5.014491 	 -18.673000 	
-5.008266 	 -18.651000 	
-5.002414 	 -18.632000 	
-4.995931 	 -18.610000 	
-4.990238 	 -18.590000 	
-4.983850 	 -18.570000 	
-4.978221 	 -18.546000 	
-4.972050 	 -18.522000 	
-4.966360 	 -18.503000 	
-4.960061 	 -18.480000 	
-4.953776 	 -18.461000 	
-4.948287 	 -18.439000 	
-4.942265 	 -18.421000 	
-4.936023 	 -18.399000 	
-4.929870 	 -18.380000 	
-4.924014 	 -18.357000 	
-4.918456 	 -18.338000 	
-4.912112 	 -18.315000 	
-4.905920 	 -18.295000 	
-4.900098 	 -18.275000 	
-4.893928 	 -18.251000 	
-4.887735 	 -18.232000 	
-4.882406 	 -18.209000 	
-4.875679 	 -18.190000 	
-4.869860 	 -18.168000 	
-4.864197 	 -18.149000 	
-4.858144 	 -18.127000 	
-4.851925 	 -18.108000 	
-4.845515 	 -18.084000 	
-4.840162 	 -18.064000 	
-4.834189 	 -18.040000 	
-4.828108 	 -18.020000 	
-4.821681 	 -17.997000 	
-4.816083 	 -17.978000 	
-4.809551 	 -17.956000 	
-4.803724 	 -17.937000 	
-4.797943 	 -17.915000 	
-4.791992 	 -17.896000 	
-4.785806 	 -17.873000 	
-4.779936 	 -17.853000 	
-4.773842 	 -17.829000 	
-4.767777 	 -17.809000 	
-4.762041 	 -17.787000 	
-4.756301 	 -17.769000 	
-4.749653 	 -17.747000 	
-4.743476 	 -17.728000 	
-4.737947 	 -17.706000 	
-4.732129 	 -17.684000 	
-4.725608 	 -17.665000 	
-4.719737 	 -17.645000 	
-4.713861 	 -17.621000 	
-4.707652 	 -17.601000 	
-4.701948 	 -17.582000 	
-4.695710 	 -17.558000 	
-4.689883 	 -17.536000 	
-4.683681 	 -17.517000 	
-4.677831 	 -17.498000 	
-4.672264 	 -17.475000 	
-4.666138 	 -17.453000 	
-4.660161 	 -17.433000 	
-4.654058 	 -17.414000 	
-4.648212 	 -17.391000 	
-4.641558 	 -17.371000 	
-4.636051 	 -17.348000 	
-4.630137 	 -17.329000 	
-4.623703 	 -17.306000 	
-4.617899 	 -17.283000 	
-4.611565 	 -17.264000 	
-4.605665 	 -17.245000 	
-4.600083 	 -17.222000 	
-4.594422 	 -17.203000 	
-4.588174 	 -17.180000 	
-4.582194 	 -17.161000 	
-4.575692 	 -17.137000 	
-4.569555 	 -17.118000 	
-4.563522 	 -17.095000 	
-4.557648 	 -17.076000 	
-4.552182 	 -17.053000 	
-4.545817 	 -17.035000 	
-4.539736 	 -17.017000 	
-4.533642 	 -16.994000 	
-4.528079 	 -16.976000 	
-4.521995 	 -16.952000 	
-4.515584 	 -16.929000 	
-4.509701 	 -16.909000 	
-4.504037 	 -16.888000 	
-4.497714 	 -16.865000 	
-4.491722 	 -16.841000 	
-4.485953 	 -16.823000 	
-4.479795 	 -16.805000 	
-4.473547 	 -16.784000 	
-4.467858 	 -16.762000 	
-4.462057 	 -16.744000 	
-4.456057 	 -16.724000 	
-4.450028 	 -16.701000 	
-4.443719 	 -16.676000 	
-4.437435 	 -16.656000 	
-4.431714 	 -16.637000 	
-4.426051 	 -16.614000 	
-4.419524 	 -16.595000 	
-4.413458 	 -16.572000 	
-4.407930 	 -16.553000 	
-4.401694 	 -16.530000 	
-4.395550 	 -16.511000 	
-4.389554 	 -16.487000 	
-4.383660 	 -16.467000 	
-4.377941 	 -16.443000 	
-4.371635 	 -16.424000 	
-4.365673 	 -16.405000 	
-4.360053 	 -16.382000 	
-4.354065 	 -16.359000 	
-4.347384 	 -16.340000 	
-4.341823 	 -16.321000 	
-4.336096 	 -16.298000 	
-4.329424 	 -16.278000 	
-4.323659 	 -16.255000 	
-4.317187 	 -16.235000 	
-4.311963 	 -16.211000 	
-4.306087 	 -16.192000 	
-4.299719 	 -16.168000 	
-4.293606 	 -16.149000 	
-4.288107 	 -16.126000 	
-4.281419 	 -16.107000 	
-4.275896 	 -16.088000 	
-4.269556 	 -16.066000 	
-4.263831 	 -16.043000 	
-4.257919 	 -16.024000 	
-4.251830 	 -16.004000 	
-4.245239 	 -15.980000 	
-4.239587 	 -15.960000 	
-4.233270 	 -15.936000 	
-4.227574 	 -15.917000 	
-4.221282 	 -15.894000 	
-4.215801 	 -15.875000 	
-4.209620 	 -15.855000 	
-4.203238 	 -15.832000 	
-4.197819 	 -15.812000 	
-4.192010 	 -15.789000 	
-4.185384 	 -15.769000 	
-4.179251 	 -15.745000 	
-4.173767 	 -15.725000 	
-4.167260 	 -15.702000 	
-4.161231 	 -15.682000 	
-4.155809 	 -15.660000 	
-4.149138 	 -15.641000 	
-4.143216 	 -15.622000 	
-4.137678 	 -15.600000 	
-4.131910 	 -15.576000 	
-4.125850 	 -15.556000 	
-4.119378 	 -15.536000 	
-4.113690 	 -15.513000 	
-4.107329 	 -15.493000 	
-4.101082 	 -15.470000 	
-4.095866 	 -15.451000 	
-4.089286 	 -15.429000 	
-4.083311 	 -15.410000 	
-4.077074 	 -15.387000 	
-4.071670 	 -15.367000 	
-4.065762 	 -15.344000 	
-4.058902 	 -15.325000 	
-4.053107 	 -15.302000 	
-4.047640 	 -15.282000 	
-4.041495 	 -15.259000 	
-4.035356 	 -15.240000 	
-4.029072 	 -15.217000 	
-4.023336 	 -15.198000 	
-4.017028 	 -15.176000 	
-4.011279 	 -15.157000 	
-4.005104 	 -15.134000 	
-3.999606 	 -15.115000 	
-3.992744 	 -15.095000 	
-3.986880 	 -15.072000 	
-3.981167 	 -15.048000 	
-3.975429 	 -15.028000 	
-3.968970 	 -15.008000 	
-3.963136 	 -14.985000 	
-3.956921 	 -14.966000 	
-3.950916 	 -14.943000 	
-3.944519 	 -14.924000 	
-3.938725 	 -14.901000 	
-3.932908 	 -14.882000 	
-3.926732 	 -14.858000 	
-3.921174 	 -14.838000 	
-3.914977 	 -14.813000 	
-3.908721 	 -14.793000 	
-3.902765 	 -14.769000 	
-3.896883 	 -14.749000 	
-3.890665 	 -14.727000 	
-3.884596 	 -14.708000 	
-3.878526 	 -14.685000 	
-3.873378 	 -14.666000 	
-3.866561 	 -14.643000 	
-3.860738 	 -14.623000 	
-3.855080 	 -14.599000 	
-3.848573 	 -14.579000 	
-3.842860 	 -14.559000 	
-3.837270 	 -14.536000 	
-3.831064 	 -14.517000 	
-3.824936 	 -14.495000 	
-3.819186 	 -14.476000 	
-3.812852 	 -14.453000 	
-3.807269 	 -14.433000 	
-3.801172 	 -14.410000 	
-3.794704 	 -14.390000 	
-3.788592 	 -14.370000 	
-3.782714 	 -14.347000 	
-3.776857 	 -14.327000 	
-3.770470 	 -14.304000 	
-3.764286 	 -14.285000 	
-3.758888 	 -14.261000 	
-3.752952 	 -14.241000 	
-3.746679 	 -14.217000 	
-3.740628 	 -14.197000 	
-3.734669 	 -14.174000 	
-3.728621 	 -14.155000 	
-3.722365 	 -14.132000 	
-3.716599 	 -14.112000 	
-3.710704 	 -14.089000 	
-3.704699 	 -14.069000 	
-3.698695 	 -14.047000 	
-3.692735 	 -14.027000 	
-3.686185 	 -14.008000 	
-3.680438 	 -13.986000 	
-3.673913 	 -13.963000 	
-3.668638 	 -13.944000 	
-3.662558 	 -13.924000 	
-3.655917 	 -13.900000 	
-3.650593 	 -13.880000 	
-3.644088 	 -13.856000 	
-3.638015 	 -13.836000 	
-3.632833 	 -13.813000 	
-3.626569 	 -13.794000 	
-3.619983 	 -13.772000 	
-3.614753 	 -13.753000 	
-3.608523 	 -13.730000 	
-3.602234 	 -13.710000 	
-3.595979 	 -13.690000 	
-3.590142 	 -13.666000 	
-3.583946 	 -13.646000 	
-3.577737 	 -13.622000 	
-3.572074 	 -13.603000 	
-3.565768 	 -13.580000 	
-3.560128 	 -13.561000 	
-3.553741 	 -13.539000 	
-3.547725 	 -13.520000 	
-3.541901 	 -13.496000 	
-3.536137 	 -13.476000 	
-3.529746 	 -13.452000 	
-3.523446 	 -13.432000 	
-3.518045 	 -13.408000 	
-3.511502 	 -13.389000 	
-3.506023 	 -13.369000 	
-3.500032 	 -13.346000 	
-3.494072 	 -13.327000 	
-3.487814 	 -13.304000 	
-3.482019 	 -13.285000 	
-3.475818 	 -13.261000 	
-3.469688 	 -13.240000 	
-3.463919 	 -13.216000 	
-3.457973 	 -13.195000 	
-3.451429 	 -13.171000 	
-3.445316 	 -13.151000 	
-3.440064 	 -13.132000 	
-3.433802 	 -13.109000 	
-3.427407 	 -13.090000 	
-3.421797 	 -13.067000 	
-3.415249 	 -13.048000 	
-3.409900 	 -13.025000 	
-3.403595 	 -13.005000 	
-3.397512 	 -12.981000 	
-3.391671 	 -12.961000 	
-3.385632 	 -12.937000 	
-3.379484 	 -12.918000 	
-3.373066 	 -12.898000 	
-3.366917 	 -12.875000 	
-3.361139 	 -12.852000 	
-3.355146 	 -12.832000 	
-3.348909 	 -12.813000 	
-3.342736 	 -12.789000 	
-3.337465 	 -12.765000 	
-3.331232 	 -12.745000 	
-3.325194 	 -12.725000 	
-3.318634 	 -12.702000 	
-3.313040 	 -12.683000 	
-3.306871 	 -12.661000 	
-3.300903 	 -12.642000 	
-3.295247 	 -12.619000 	
-3.288939 	 -12.599000 	
-3.282747 	 -12.576000 	
-3.276471 	 -12.557000 	
-3.270280 	 -12.533000 	
-3.264967 	 -12.509000 	
-3.259006 	 -12.489000 	
-3.252366 	 -12.465000 	
-3.246736 	 -12.445000 	
-3.240918 	 -12.426000 	
-3.234416 	 -12.404000 	
-3.228297 	 -12.384000 	
-3.222794 	 -12.361000 	
-3.216144 	 -12.341000 	
-3.210254 	 -12.317000 	
-3.204711 	 -12.297000 	
-3.198884 	 -12.273000 	
-3.192911 	 -12.253000 	
-3.186563 	 -12.230000 	
-3.180532 	 -12.211000 	
-3.173975 	 -12.192000 	
-3.168003 	 -12.168000 	
-3.162387 	 -12.149000 	
-3.156051 	 -12.125000 	
-3.150604 	 -12.106000 	
-3.144107 	 -12.082000 	
-3.138387 	 -12.058000 	
-3.132327 	 -12.039000 	
-3.126286 	 -12.019000 	
-3.120096 	 -11.995000 	
-3.114200 	 -11.972000 	
-3.108356 	 -11.952000 	
-3.101811 	 -11.929000 	
-3.095766 	 -11.911000 	
-3.089645 	 -11.889000 	
-3.084195 	 -11.870000 	
-3.078167 	 -11.850000 	
-3.072030 	 -11.825000 	
-3.065572 	 -11.804000 	
-3.059346 	 -11.783000 	
-3.053452 	 -11.759000 	
-3.047745 	 -11.739000 	
-3.041835 	 -11.716000 	
-3.035913 	 -11.697000 	
-3.029303 	 -11.674000 	
-3.023342 	 -11.651000 	
-3.017112 	 -11.631000 	
-3.011791 	 -11.611000 	
-3.005777 	 -11.587000 	
-2.999149 	 -11.567000 	
-2.993761 	 -11.542000 	
-2.987613 	 -11.523000 	
-2.981710 	 -11.500000 	
-2.975071 	 -11.477000 	
-2.969005 	 -11.458000 	
-2.963646 	 -11.439000 	
-2.957528 	 -11.415000 	
-2.951139 	 -11.395000 	
-2.944847 	 -11.371000 	
-2.939486 	 -11.351000 	
-2.933181 	 -11.328000 	
-2.926805 	 -11.308000 	
-2.921381 	 -11.285000 	
-2.915225 	 -11.266000 	
-2.908933 	 -11.247000 	
-2.903229 	 -11.224000 	
-2.896792 	 -11.200000 	
-2.890679 	 -11.180000 	
-2.884665 	 -11.156000 	
-2.878946 	 -11.136000 	
-2.873034 	 -11.111000 	
-2.866453 	 -11.091000 	
-2.860908 	 -11.071000 	
-2.855075 	 -11.048000 	
-2.848835 	 -11.025000 	
-2.842261 	 -11.005000 	
-2.836757 	 -10.986000 	
-2.830913 	 -10.962000 	
-2.824506 	 -10.942000 	
-2.818699 	 -10.918000 	
-2.812930 	 -10.898000 	
-2.806269 	 -10.874000 	
-2.800143 	 -10.855000 	
-2.794657 	 -10.835000 	
-2.788874 	 -10.810000 	
-2.781995 	 -10.786000 	
-2.776544 	 -10.766000 	
-2.770183 	 -10.747000 	
-2.763772 	 -10.725000 	
-2.758280 	 -10.705000 	
-2.752145 	 -10.682000 	
-2.745899 	 -10.661000 	
-2.739860 	 -10.637000 	
-2.733975 	 -10.616000 	
-2.728429 	 -10.595000 	
-2.721608 	 -10.570000 	
-2.715788 	 -10.550000 	
-2.709724 	 -10.527000 	
-2.703544 	 -10.507000 	
-2.698076 	 -10.484000 	
-2.691593 	 -10.464000 	
-2.686129 	 -10.440000 	
-2.679373 	 -10.419000 	
-2.673457 	 -10.395000 	
-2.667977 	 -10.374000 	
-2.661917 	 -10.355000 	
-2.655203 	 -10.331000 	
-2.649587 	 -10.308000 	
-2.643952 	 -10.289000 	
-2.637321 	 -10.265000 	
-2.631683 	 -10.246000 	
-2.624900 	 -10.222000 	
-2.619199 	 -10.202000 	
-2.613630 	 -10.178000 	
-2.607633 	 -10.158000 	
-2.601079 	 -10.134000 	
-2.595063 	 -10.115000 	
-2.588745 	 -10.092000 	
-2.583471 	 -10.073000 	
-2.576779 	 -10.053000 	
-2.571230 	 -10.028000 	
-2.565090 	 -10.008000 	
-2.559352 	 -9.984000 	
-2.552615 	 -9.964000 	
-2.546630 	 -9.940000 	
-2.541202 	 -9.920000 	
-2.535029 	 -9.896000 	
-2.528839 	 -9.876000 	
-2.522744 	 -9.852000 	
-2.516482 	 -9.832000 	
-2.510898 	 -9.812000 	
-2.504430 	 -9.788000 	
-2.498973 	 -9.764000 	
-2.492720 	 -9.744000 	
-2.486701 	 -9.723000 	
-2.480445 	 -9.699000 	
-2.474385 	 -9.679000 	
-2.468506 	 -9.655000 	
-2.462128 	 -9.635000 	
-2.456216 	 -9.611000 	
-2.450018 	 -9.591000 	
-2.444479 	 -9.567000 	
-2.438148 	 -9.547000 	
-2.432473 	 -9.523000 	
-2.425923 	 -9.502000 	
-2.419871 	 -9.481000 	
-2.413665 	 -9.457000 	
-2.408224 	 -9.432000 	
-2.402175 	 -9.412000 	
-2.395626 	 -9.392000 	
-2.390084 	 -9.369000 	
-2.384276 	 -9.349000 	
-2.377695 	 -9.324000 	
-2.371993 	 -9.303000 	
-2.365387 	 -9.278000 	
-2.359537 	 -9.258000 	
-2.353830 	 -9.238000 	
-2.347143 	 -9.214000 	
-2.341227 	 -9.190000 	
-2.335831 	 -9.170000 	
-2.329306 	 -9.146000 	
-2.323842 	 -9.127000 	
-2.317508 	 -9.103000 	
-2.311426 	 -9.082000 	
-2.305251 	 -9.057000 	
-2.299421 	 -9.032000 	
-2.292951 	 -9.011000 	
-2.287242 	 -8.991000 	
-2.281496 	 -8.967000 	
-2.275652 	 -8.943000 	
-2.269355 	 -8.923000 	
-2.263359 	 -8.903000 	
-2.257045 	 -8.878000 	
-2.250590 	 -8.853000 	
-2.245254 	 -8.833000 	
-2.238785 	 -8.813000 	
-2.232924 	 -8.789000 	
-2.226520 	 -8.769000 	
-2.220925 	 -8.744000 	
-2.214547 	 -8.723000 	
-2.208649 	 -8.698000 	
-2.202886 	 -8.678000 	
-2.196918 	 -8.653000 	
-2.190403 	 -8.632000 	
-2.184247 	 -8.607000 	
-2.178395 	 -8.587000 	
-2.172267 	 -8.562000 	
-2.166382 	 -8.541000 	
-2.160554 	 -8.516000 	
-2.154491 	 -8.495000 	
-2.148052 	 -8.470000 	
-2.142496 	 -8.450000 	
-2.135934 	 -8.425000 	
-2.130402 	 -8.405000 	
-2.123735 	 -8.380000 	
-2.117773 	 -8.359000 	
-2.112296 	 -8.338000 	
-2.105633 	 -8.312000 	
-2.099798 	 -8.291000 	
-2.093682 	 -8.266000 	
-2.087895 	 -8.246000 	
-2.081749 	 -8.222000 	
-2.075516 	 -8.201000 	
-2.069505 	 -8.176000 	
-2.063283 	 -8.155000 	
-2.057545 	 -8.129000 	
-2.051322 	 -8.108000 	
-2.045270 	 -8.087000 	
-2.039086 	 -8.062000 	
-2.033275 	 -8.038000 	
-2.027500 	 -8.017000 	
-2.021013 	 -7.997000 	
-2.015230 	 -7.972000 	
-2.009605 	 -7.951000 	
-2.003475 	 -7.926000 	
-1.997406 	 -7.905000 	
-1.990877 	 -7.879000 	
-1.984661 	 -7.858000 	
-1.978760 	 -7.833000 	
-1.973079 	 -7.812000 	
-1.967273 	 -7.787000 	
-1.960433 	 -7.766000 	
-1.955163 	 -7.741000 	
-1.948555 	 -7.720000 	
-1.942487 	 -7.694000 	
-1.937020 	 -7.673000 	
-1.930683 	 -7.648000 	
-1.924678 	 -7.627000 	
-1.918418 	 -7.602000 	
-1.912701 	 -7.581000 	
-1.906719 	 -7.560000 	
-1.900597 	 -7.535000 	
-1.894684 	 -7.510000 	
-1.888312 	 -7.489000 	
-1.882319 	 -7.468000 	
-1.876013 	 -7.443000 	
-1.870569 	 -7.417000 	
-1.864146 	 -7.395000 	
-1.858330 	 -7.373000 	
-1.852149 	 -7.346000 	
-1.846292 	 -7.325000 	
-1.839763 	 -7.300000 	
-1.833882 	 -7.280000 	
-1.828066 	 -7.254000 	
-1.821717 	 -7.233000 	
-1.815891 	 -7.207000 	
-1.809967 	 -7.186000 	
-1.804231 	 -7.161000 	
-1.798166 	 -7.140000 	
-1.791873 	 -7.115000 	
-1.785402 	 -7.094000 	
-1.779512 	 -7.074000 	
-1.773245 	 -7.049000 	
-1.767355 	 -7.024000 	
-1.761115 	 -7.002000 	
-1.755529 	 -6.981000 	
-1.749212 	 -6.955000 	
-1.743242 	 -6.933000 	
-1.737658 	 -6.908000 	
-1.730977 	 -6.887000 	
-1.725680 	 -6.862000 	
-1.719322 	 -6.841000 	
-1.713090 	 -6.815000 	
-1.706798 	 -6.794000 	
-1.700659 	 -6.768000 	
-1.695356 	 -6.747000 	
-1.689341 	 -6.721000 	
-1.682750 	 -6.700000 	
-1.677206 	 -6.674000 	
-1.670940 	 -6.653000 	
-1.664393 	 -6.632000 	
-1.659080 	 -6.607000 	
-1.652500 	 -6.582000 	
-1.646537 	 -6.561000 	
-1.640368 	 -6.540000 	
-1.634498 	 -6.514000 	
-1.628776 	 -6.489000 	
-1.622078 	 -6.468000 	
-1.616090 	 -6.446000 	
-1.610722 	 -6.422000 	
-1.604605 	 -6.401000 	
-1.598208 	 -6.377000 	
-1.591978 	 -6.356000 	
-1.586375 	 -6.331000 	
-1.580008 	 -6.309000 	
-1.573876 	 -6.283000 	
-1.567887 	 -6.261000 	
-1.561576 	 -6.234000 	
-1.555638 	 -6.213000 	
-1.550086 	 -6.189000 	
-1.543734 	 -6.168000 	
-1.538103 	 -6.144000 	
-1.531538 	 -6.123000 	
-1.525948 	 -6.098000 	
-1.520036 	 -6.076000 	
-1.513486 	 -6.050000 	
-1.507626 	 -6.028000 	
-1.501317 	 -6.002000 	
-1.495784 	 -5.981000 	
-1.489660 	 -5.959000 	
-1.483683 	 -5.934000 	
-1.477549 	 -5.913000 	
-1.470970 	 -5.887000 	
-1.465011 	 -5.866000 	
-1.459256 	 -5.840000 	
-1.453432 	 -5.818000 	
-1.446917 	 -5.796000 	
-1.441380 	 -5.770000 	
-1.435356 	 -5.749000 	
-1.428706 	 -5.724000 	
-1.422663 	 -5.702000 	
-1.417066 	 -5.676000 	
-1.411112 	 -5.655000 	
-1.404586 	 -5.628000 	
-1.399101 	 -5.607000 	
-1.393063 	 -5.581000 	
-1.387040 	 -5.559000 	
-1.380782 	 -5.533000 	
-1.374796 	 -5.511000 	
-1.368714 	 -5.489000 	
-1.362487 	 -5.462000 	
-1.356737 	 -5.441000 	
-1.350752 	 -5.415000 	
-1.344413 	 -5.389000 	
-1.338279 	 -5.368000 	
-1.332478 	 -5.342000 	
-1.326105 	 -5.321000 	
-1.320021 	 -5.296000 	
-1.313654 	 -5.275000 	
-1.308364 	 -5.254000 	
-1.302405 	 -5.228000 	
-1.295646 	 -5.207000 	
-1.289658 	 -5.182000 	
-1.283702 	 -5.161000 	
-1.277785 	 -5.134000 	
-1.271560 	 -5.112000 	
-1.265994 	 -5.086000 	
-1.260125 	 -5.064000 	
-1.254117 	 -5.037000 	
-1.247802 	 -5.016000 	
-1.241698 	 -4.995000 	
-1.235998 	 -4.970000 	
-1.229095 	 -4.944000 	
-1.223749 	 -4.921000 	
-1.217551 	 -4.899000 	
-1.211407 	 -4.873000 	
-1.205746 	 -4.851000 	
-1.199443 	 -4.824000 	
-1.193001 	 -4.803000 	
-1.187378 	 -4.777000 	
-1.180748 	 -4.756000 	
-1.174920 	 -4.733000 	
-1.169312 	 -4.706000 	
-1.163383 	 -4.684000 	
-1.157089 	 -4.657000 	
-1.151050 	 -4.636000 	
-1.145023 	 -4.610000 	
-1.138603 	 -4.588000 	
-1.132394 	 -4.562000 	
-1.126564 	 -4.540000 	
-1.120780 	 -4.514000 	
-1.115000 	 -4.493000 	
-1.108630 	 -4.471000 	
-1.102178 	 -4.445000 	
-1.096733 	 -4.419000 	
-1.090183 	 -4.397000 	
-1.084162 	 -4.376000 	
-1.078470 	 -4.349000 	
-1.072423 	 -4.323000 	
-1.065973 	 -4.301000 	
-1.060417 	 -4.280000 	
-1.054353 	 -4.254000 	
-1.048045 	 -4.233000 	
-1.041726 	 -4.207000 	
-1.035782 	 -4.184000 	
-1.030116 	 -4.158000 	
-1.023584 	 -4.136000 	
-1.018038 	 -4.109000 	
-1.011927 	 -4.087000 	
-1.005771 	 -4.062000 	
-0.999907 	 -4.040000 	
-0.994049 	 -4.018000 	
-0.987588 	 -3.992000 	
-0.981533 	 -3.970000 	
-0.975778 	 -3.943000 	
-0.969111 	 -3.921000 	
-0.963376 	 -3.894000 	
-0.957615 	 -3.873000 	
-0.951131 	 -3.851000 	
-0.945088 	 -3.826000 	
-0.938945 	 -3.800000 	
-0.933365 	 -3.779000 	
-0.926847 	 -3.752000 	
-0.920687 	 -3.730000 	
-0.914863 	 -3.703000 	
-0.909213 	 -3.681000 	
-0.903192 	 -3.660000 	
-0.896774 	 -3.637000 	
-0.890946 	 -3.618000 	
-0.884712 	 -3.597000 	
-0.878923 	 -3.578000 	
-0.872971 	 -3.554000 	
-0.866392 	 -3.532000 	
-0.860993 	 -3.505000 	
-0.854401 	 -3.482000 	
-0.848577 	 -3.456000 	
-0.842902 	 -3.434000 	
-0.836356 	 -3.412000 	
-0.830177 	 -3.387000 	
-0.824652 	 -3.361000 	
-0.818197 	 -3.339000 	
-0.812780 	 -3.313000 	
-0.806303 	 -3.291000 	
-0.800445 	 -3.269000 	
-0.794618 	 -3.243000 	
-0.787971 	 -3.221000 	
-0.781837 	 -3.194000 	
-0.776513 	 -3.172000 	
-0.770334 	 -3.145000 	
-0.764271 	 -3.124000 	
-0.758075 	 -3.098000 	
-0.751973 	 -3.076000 	
-0.745612 	 -3.050000 	
-0.740124 	 -3.027000 	
-0.733785 	 -3.001000 	
-0.727459 	 -2.979000 	
-0.721320 	 -2.952000 	
-0.715666 	 -2.931000 	
-0.709285 	 -2.909000 	
-0.703822 	 -2.883000 	
-0.697528 	 -2.857000 	
-0.691221 	 -2.835000 	
-0.685255 	 -2.813000 	
-0.679706 	 -2.786000 	
-0.673181 	 -2.763000 	
-0.667142 	 -2.737000 	
-0.661600 	 -2.715000 	
-0.655158 	 -2.689000 	
-0.648580 	 -2.667000 	
-0.642791 	 -2.642000 	
-0.637163 	 -2.620000 	
-0.631195 	 -2.593000 	
-0.624929 	 -2.571000 	
-0.618601 	 -2.549000 	
-0.613139 	 -2.522000 	
-0.607163 	 -2.496000 	
-0.600838 	 -2.474000 	
-0.594488 	 -2.448000 	
-0.588383 	 -2.427000 	
-0.582581 	 -2.402000 	
-0.576334 	 -2.381000 	
-0.570104 	 -2.359000 	
-0.564292 	 -2.332000 	
-0.558680 	 -2.305000 	
-0.552040 	 -2.283000 	
-0.546729 	 -2.261000 	
-0.540161 	 -2.235000 	
-0.534261 	 -2.214000 	
-0.528006 	 -2.188000 	
-0.521867 	 -2.166000 	
-0.516056 	 -2.139000 	
-0.510061 	 -2.116000 	
-0.504251 	 -2.089000 	
-0.498245 	 -2.067000 	
-0.491890 	 -2.041000 	
-0.485684 	 -2.019000 	
-0.480234 	 -1.993000 	
-0.474086 	 -1.972000 	
-0.467649 	 -1.946000 	
-0.461597 	 -1.924000 	
-0.455755 	 -1.898000 	
-0.449448 	 -1.876000 	
-0.443411 	 -1.850000 	
-0.437732 	 -1.828000 	
-0.431283 	 -1.802000 	
-0.425166 	 -1.780000 	
-0.419101 	 -1.758000 	
-0.413666 	 -1.732000 	
-0.407373 	 -1.711000 	
-0.400934 	 -1.684000 	
-0.395492 	 -1.662000 	
-0.389389 	 -1.635000 	
-0.382598 	 -1.613000 	
-0.377062 	 -1.586000 	
-0.370820 	 -1.564000 	
-0.365137 	 -1.538000 	
-0.358567 	 -1.516000 	
-0.352639 	 -1.491000 	
-0.347058 	 -1.469000 	
-0.340936 	 -1.443000 	
-0.334448 	 -1.420000 	
-0.328878 	 -1.393000 	
-0.322699 	 -1.371000 	
-0.316347 	 -1.344000 	
-0.310001 	 -1.322000 	
-0.304322 	 -1.301000 	
-0.298429 	 -1.275000 	
-0.292534 	 -1.249000 	
-0.286878 	 -1.226000 	
-0.280097 	 -1.204000 	
-0.273979 	 -1.177000 	
-0.268239 	 -1.150000 	
-0.262443 	 -1.128000 	
-0.256688 	 -1.107000 	
-0.250369 	 -1.081000 	
-0.243990 	 -1.059000 	
-0.238499 	 -1.033000 	
-0.231760 	 -1.011000 	
-0.225679 	 -0.984000 	
-0.220376 	 -0.962000 	
-0.213701 	 -0.936000 	
-0.207541 	 -0.913000 	
-0.201655 	 -0.887000 	
-0.195624 	 -0.865000 	
-0.189361 	 -0.843000 	
-0.183473 	 -0.817000 	
-0.177824 	 -0.795000 	
-0.171956 	 -0.769000 	
-0.165812 	 -0.747000 	
-0.159626 	 -0.720000 	
-0.153552 	 -0.698000 	
-0.147497 	 -0.676000 	
-0.141526 	 -0.649000 	
-0.135780 	 -0.627000 	
-0.129455 	 -0.601000 	
-0.122942 	 -0.580000 	
-0.116790 	 -0.554000 	
-0.111327 	 -0.532000 	
-0.104878 	 -0.510000 	
-0.098947 	 -0.482000 	
-0.093004 	 -0.454000 	
-0.087440 	 -0.432000 	
-0.080814 	 -0.410000 	
-0.074576 	 -0.385000 	
-0.068564 	 -0.360000 	
-0.062456 	 -0.338000 	
-0.056701 	 -0.316000 	
-0.050821 	 -0.289000 	
-0.044338 	 -0.262000 	
-0.038330 	 -0.239000 	
-0.032863 	 -0.217000 	
-0.026948 	 -0.191000 	
-0.020707 	 -0.169000 	
-0.014578 	 -0.144000 	
-0.008406 	 -0.122000 	
-0.002086 	 -0.096000 	
0.003701 	 -0.074000 	
0.009579 	 -0.047000 	
0.015756 	 -0.024000 	
0.021514 	 0.003000 	
0.027676 	 0.026000 	
0.034299 	 0.048000 	
0.039815 	 0.075000 	
0.045651 	 0.097000 	
0.052311 	 0.123000 	
0.057854 	 0.145000 	
0.064459 	 0.172000 	
0.070613 	 0.195000 	
0.076249 	 0.222000 	
0.082155 	 0.245000 	
0.088717 	 0.272000 	
0.094782 	 0.294000 	
0.100709 	 0.316000 	
0.106337 	 0.342000 	
0.112190 	 0.369000 	
0.118758 	 0.391000 	
0.125033 	 0.417000 	
0.130851 	 0.438000 	
0.136352 	 0.465000 	
0.143086 	 0.487000 	
0.149019 	 0.514000 	
0.154688 	 0.536000 	
0.160830 	 0.558000 	
0.167382 	 0.584000 	
0.173509 	 0.610000 	
0.179583 	 0.632000 	
0.185183 	 0.654000 	
0.191383 	 0.681000 	
0.197182 	 0.708000 	
0.202977 	 0.730000 	
0.209523 	 0.752000 	
0.215378 	 0.778000 	
0.221901 	 0.804000 	
0.227809 	 0.826000 	
0.233722 	 0.848000 	
0.240001 	 0.875000 	
0.245215 	 0.897000 	
0.251622 	 0.923000 	
0.257641 	 0.945000 	
0.263541 	 0.972000 	
0.270349 	 0.994000 	
0.275819 	 1.015000 	
0.282007 	 1.042000 	
0.287882 	 1.068000 	
0.294405 	 1.090000 	
0.299999 	 1.117000 	
0.306032 	 1.139000 	
0.312313 	 1.165000 	
0.318411 	 1.188000 	
0.324206 	 1.210000 	
0.330400 	 1.236000 	
0.336836 	 1.262000 	
0.342531 	 1.284000 	
0.348545 	 1.305000 	
0.354323 	 1.331000 	
0.360677 	 1.353000 	
0.366629 	 1.379000 	
0.372225 	 1.402000 	
0.378205 	 1.429000 	
0.384377 	 1.451000 	
0.390586 	 1.477000 	
0.396861 	 1.499000 	
0.402395 	 1.525000 	
0.408655 	 1.547000 	
0.414512 	 1.570000 	
0.421065 	 1.597000 	
0.426973 	 1.619000 	
0.432817 	 1.646000 	
0.439384 	 1.668000 	
0.444929 	 1.694000 	
0.451565 	 1.716000 	
0.457282 	 1.742000 	
0.463152 	 1.763000 	
0.469500 	 1.785000 	
0.475438 	 1.812000 	
0.481738 	 1.834000 	
0.487040 	 1.861000 	
0.493126 	 1.884000 	
0.499318 	 1.910000 	
0.505872 	 1.936000 	
0.511795 	 1.958000 	
0.517484 	 1.979000 	
0.523717 	 2.005000 	
0.530316 	 2.026000 	
0.535602 	 2.053000 	
0.541827 	 2.075000 	
0.548267 	 2.102000 	
0.554031 	 2.124000 	
0.560154 	 2.145000 	
0.566484 	 2.171000 	
0.572442 	 2.193000 	
0.577937 	 2.219000 	
0.584481 	 2.241000 	
0.590552 	 2.267000 	
0.595976 	 2.289000 	
0.602646 	 2.316000 	
0.607922 	 2.338000 	
0.614091 	 2.365000 	
0.620693 	 2.387000 	
0.626630 	 2.409000 	
0.632855 	 2.435000 	
0.638543 	 2.457000 	
0.644977 	 2.483000 	
0.650478 	 2.505000 	
0.656388 	 2.532000 	
0.662539 	 2.555000 	
0.668742 	 2.581000 	
0.674992 	 2.603000 	
0.680990 	 2.625000 	
0.686882 	 2.651000 	
0.692758 	 2.672000 	
0.699144 	 2.699000 	
0.704773 	 2.721000 	
0.711315 	 2.749000 	
0.717421 	 2.772000 	
0.723391 	 2.800000 	
0.729155 	 2.822000 	
0.735514 	 2.848000 	
0.741766 	 2.869000 	
0.747589 	 2.895000 	
0.753209 	 2.916000 	
0.759574 	 2.943000 	
0.765578 	 2.964000 	
0.771673 	 2.990000 	
0.777380 	 3.012000 	
0.784032 	 3.038000 	
0.789655 	 3.060000 	
0.795721 	 3.086000 	
0.801493 	 3.107000 	
0.808229 	 3.129000 	
0.814244 	 3.155000 	
0.819911 	 3.181000 	
0.826082 	 3.203000 	
0.832136 	 3.226000 	
0.837945 	 3.252000 	
0.844624 	 3.279000 	
0.850311 	 3.301000 	
0.856729 	 3.323000 	
0.861978 	 3.349000 	
0.868544 	 3.371000 	
0.874749 	 3.397000 	
0.880682 	 3.419000 	
0.886783 	 3.446000 	
0.893050 	 3.468000 	
0.898567 	 3.490000 	
0.904381 	 3.517000 	
0.910937 	 3.539000 	
0.917163 	 3.565000 	
0.923184 	 3.586000 	
0.929079 	 3.612000 	
0.935273 	 3.634000 	
0.940498 	 3.656000 	
0.946828 	 3.683000 	
0.953447 	 3.710000 	
0.958993 	 3.733000 	
0.965239 	 3.756000 	
0.970796 	 3.780000 	
0.976936 	 3.799000 	
0.983147 	 3.822000 	
0.989475 	 3.840000 	
0.995080 	 3.863000 	
1.001874 	 3.884000 	
1.007558 	 3.908000 	
1.013789 	 3.930000 	
1.019319 	 3.956000 	
1.025903 	 3.978000 	
1.031643 	 4.001000 	
1.037505 	 4.028000 	
1.044072 	 4.050000 	
1.050260 	 4.076000 	
1.056060 	 4.098000 	
1.062021 	 4.124000 	
1.067827 	 4.146000 	
1.074039 	 4.168000 	
1.080319 	 4.194000 	
1.086283 	 4.221000 	
1.092285 	 4.243000 	
1.098049 	 4.265000 	
1.104041 	 4.291000 	
1.109792 	 4.318000 	
1.116161 	 4.340000 	
1.122527 	 4.362000 	
1.128824 	 4.388000 	
1.134294 	 4.414000 	
1.140560 	 4.435000 	
1.146801 	 4.457000 	
1.152850 	 4.483000 	
1.158428 	 4.504000 	
1.164443 	 4.531000 	
1.170711 	 4.552000 	
1.176983 	 4.579000 	
1.182994 	 4.600000 	
1.188705 	 4.626000 	
1.195045 	 4.648000 	
1.200600 	 4.674000 	
1.206885 	 4.696000 	
1.212982 	 4.718000 	
1.218831 	 4.743000 	
1.225282 	 4.765000 	
1.231631 	 4.791000 	
1.236903 	 4.813000 	
1.243103 	 4.839000 	
1.249428 	 4.861000 	
1.255523 	 4.886000 	
1.261390 	 4.908000 	
1.267841 	 4.934000 	
1.274088 	 4.956000 	
1.279792 	 4.977000 	
1.285931 	 5.003000 	
1.292062 	 5.025000 	
1.297560 	 5.051000 	
1.303967 	 5.072000 	
1.309859 	 5.098000 	
1.315573 	 5.120000 	
1.321662 	 5.142000 	
1.328096 	 5.168000 	
1.333822 	 5.190000 	
1.340590 	 5.216000 	
1.346594 	 5.238000 	
1.351866 	 5.264000 	
1.357982 	 5.286000 	
1.364740 	 5.312000 	
1.370387 	 5.333000 	
1.376482 	 5.359000 	
1.382057 	 5.380000 	
1.388232 	 5.402000 	
1.394211 	 5.427000 	
1.400257 	 5.453000 	
1.406889 	 5.475000 	
1.412978 	 5.501000 	
1.419080 	 5.522000 	
1.424404 	 5.548000 	
1.431142 	 5.569000 	
1.436779 	 5.596000 	
1.442751 	 5.617000 	
1.448623 	 5.643000 	
1.454734 	 5.665000 	
1.460756 	 5.687000 	
1.467354 	 5.713000 	
1.473097 	 5.735000 	
1.478973 	 5.760000 	
1.485318 	 5.782000 	
1.491683 	 5.807000 	
1.497486 	 5.829000 	
1.503178 	 5.854000 	
1.509343 	 5.876000 	
1.515319 	 5.901000 	
1.521944 	 5.922000 	
1.527399 	 5.948000 	
1.533339 	 5.969000 	
1.539972 	 5.994000 	
1.545252 	 6.016000 	
1.552057 	 6.041000 	
1.557360 	 6.063000 	
1.563444 	 6.085000 	
1.569629 	 6.110000 	
1.576233 	 6.132000 	
1.581869 	 6.157000 	
1.587691 	 6.179000 	
1.593898 	 6.205000 	
1.599980 	 6.226000 	
1.606190 	 6.252000 	
1.612498 	 6.273000 	
1.618774 	 6.299000 	
1.624098 	 6.320000 	
1.630718 	 6.345000 	
1.636538 	 6.366000 	
1.642832 	 6.391000 	
1.649037 	 6.413000 	
1.654833 	 6.434000 	
1.660724 	 6.459000 	
1.666984 	 6.484000 	
1.673002 	 6.506000 	
1.678982 	 6.527000 	
1.684824 	 6.553000 	
1.690575 	 6.578000 	
1.697216 	 6.599000 	
1.703341 	 6.621000 	
1.708629 	 6.647000 	
1.715264 	 6.668000 	
1.720865 	 6.689000 	
1.727665 	 6.714000 	
1.733011 	 6.735000 	
1.739062 	 6.760000 	
1.745356 	 6.781000 	
1.751608 	 6.807000 	
1.757014 	 6.828000 	
1.763650 	 6.853000 	
1.769248 	 6.874000 	
1.775787 	 6.895000 	
1.781788 	 6.920000 	
1.788055 	 6.946000 	
1.793981 	 6.967000 	
1.799517 	 6.988000 	
1.805622 	 7.014000 	
1.812122 	 7.036000 	
1.817798 	 7.062000 	
1.824301 	 7.083000 	
1.830480 	 7.109000 	
1.836591 	 7.131000 	
1.842664 	 7.153000 	
1.848197 	 7.179000 	
1.854343 	 7.204000 	
1.860757 	 7.225000 	
1.866552 	 7.246000 	
1.872971 	 7.271000 	
1.878373 	 7.292000 	
1.884302 	 7.317000 	
1.891105 	 7.338000 	
1.896684 	 7.364000 	
1.902314 	 7.384000 	
1.908993 	 7.405000 	
1.914481 	 7.430000 	
1.920681 	 7.455000 	
1.927281 	 7.476000 	
1.933231 	 7.498000 	
1.939005 	 7.524000 	
1.944887 	 7.550000 	
1.950880 	 7.571000 	
1.957577 	 7.596000 	
1.963285 	 7.617000 	
1.969041 	 7.637000 	
1.975511 	 7.661000 	
1.981600 	 7.682000 	
1.987944 	 7.708000 	
1.993321 	 7.730000 	
1.999383 	 7.756000 	
2.005557 	 7.777000 	
2.012034 	 7.801000 	
2.017418 	 7.821000 	
2.024233 	 7.846000 	
2.029860 	 7.867000 	
2.036220 	 7.894000 	
2.042025 	 7.915000 	
2.047626 	 7.936000 	
2.054297 	 7.962000 	
2.060501 	 7.983000 	
2.065844 	 8.008000 	
2.072635 	 8.033000 	
2.078235 	 8.054000 	
2.084040 	 8.074000 	
2.090128 	 8.098000 	
2.096743 	 8.118000 	
2.102299 	 8.139000 	
2.108941 	 8.165000 	
2.114349 	 8.187000 	
2.121028 	 8.213000 	
2.127045 	 8.234000 	
2.132499 	 8.259000 	
2.138744 	 8.279000 	
2.144644 	 8.304000 	
2.151332 	 8.324000 	
2.156659 	 8.349000 	
2.163336 	 8.370000 	
2.169241 	 8.391000 	
2.174788 	 8.416000 	
2.181028 	 8.437000 	
2.186865 	 8.462000 	
2.193077 	 8.483000 	
2.199731 	 8.508000 	
2.205576 	 8.528000 	
2.211037 	 8.553000 	
2.217689 	 8.573000 	
2.223282 	 8.598000 	
2.229484 	 8.619000 	
2.235772 	 8.644000 	
2.241818 	 8.664000 	
2.247399 	 8.689000 	
2.253940 	 8.710000 	
2.259521 	 8.735000 	
2.266114 	 8.755000 	
2.272146 	 8.780000 	
2.278526 	 8.800000 	
2.284302 	 8.821000 	
2.290419 	 8.846000 	
2.296423 	 8.871000 	
2.301908 	 8.892000 	
2.308495 	 8.913000 	
2.314007 	 8.937000 	
2.320658 	 8.958000 	
2.326568 	 8.983000 	
2.332204 	 9.003000 	
2.337995 	 9.028000 	
2.344701 	 9.048000 	
2.350383 	 9.073000 	
2.356710 	 9.093000 	
2.362386 	 9.118000 	
2.369164 	 9.138000 	
2.374906 	 9.162000 	
2.380914 	 9.183000 	
2.386672 	 9.207000 	
2.393183 	 9.227000 	
2.398535 	 9.252000 	
2.404623 	 9.272000 	
2.410835 	 9.296000 	
2.417317 	 9.317000 	
2.423563 	 9.341000 	
2.429126 	 9.361000 	
2.435140 	 9.385000 	
2.441568 	 9.405000 	
2.447673 	 9.425000 	
2.453357 	 9.449000 	
2.459239 	 9.470000 	
2.465224 	 9.494000 	
2.471540 	 9.514000 	
2.477544 	 9.538000 	
2.483347 	 9.559000 	
2.489667 	 9.579000 	
2.496062 	 9.603000 	
2.501385 	 9.627000 	
2.508290 	 9.647000 	
2.514060 	 9.667000 	
2.520019 	 9.691000 	
2.525972 	 9.711000 	
2.532094 	 9.735000 	
2.538478 	 9.756000 	
2.543851 	 9.780000 	
2.549770 	 9.801000 	
2.556010 	 9.825000 	
2.562082 	 9.845000 	
2.568733 	 9.869000 	
2.574398 	 9.890000 	
2.580400 	 9.914000 	
2.586563 	 9.934000 	
2.592742 	 9.954000 	
2.598750 	 9.977000 	
2.604619 	 9.997000 	
2.610790 	 10.021000 	
2.617172 	 10.041000 	
2.622632 	 10.065000 	
2.628286 	 10.085000 	
2.635169 	 10.109000 	
2.641035 	 10.129000 	
2.646886 	 10.148000 	
2.653073 	 10.172000 	
2.659112 	 10.192000 	
2.665080 	 10.216000 	
2.671039 	 10.236000 	
2.677475 	 10.260000 	
2.683060 	 10.281000 	
2.689148 	 10.305000 	
2.695547 	 10.325000 	
2.701151 	 10.349000 	
2.707298 	 10.369000 	
2.713941 	 10.392000 	
2.719812 	 10.412000 	
2.725636 	 10.436000 	
2.731875 	 10.456000 	
2.737759 	 10.476000 	
2.743923 	 10.499000 	
2.749473 	 10.519000 	
2.755513 	 10.543000 	
2.761496 	 10.563000 	
2.767872 	 10.587000 	
2.774264 	 10.606000 	
2.780011 	 10.630000 	
2.785951 	 10.649000 	
2.791940 	 10.673000 	
2.798336 	 10.693000 	
2.804696 	 10.718000 	
2.810038 	 10.738000 	
2.816420 	 10.762000 	
2.822471 	 10.782000 	
2.828498 	 10.806000 	
2.834318 	 10.826000 	
2.840609 	 10.846000 	
2.847182 	 10.869000 	
2.853014 	 10.893000 	
2.858927 	 10.913000 	
2.864561 	 10.936000 	
2.871219 	 10.956000 	
2.876547 	 10.980000 	
2.883186 	 11.000000 	
2.889378 	 11.020000 	
2.895116 	 11.043000 	
2.901388 	 11.063000 	
2.907422 	 11.086000 	
2.912985 	 11.106000 	
2.919055 	 11.129000 	
2.925452 	 11.149000 	
2.931472 	 11.169000 	
2.937430 	 11.193000 	
2.943863 	 11.213000 	
2.949195 	 11.237000 	
2.955571 	 11.257000 	
2.961648 	 11.281000 	
2.967410 	 11.301000 	
2.973572 	 11.320000 	
2.979457 	 11.344000 	
2.985744 	 11.363000 	
2.991734 	 11.387000 	
2.997661 	 11.407000 	
3.003682 	 11.431000 	
3.009696 	 11.450000 	
3.016371 	 11.474000 	
3.022150 	 11.493000 	
3.028231 	 11.517000 	
3.034293 	 11.537000 	
3.040613 	 11.560000 	
3.046190 	 11.580000 	
3.052598 	 11.603000 	
3.058378 	 11.623000 	
3.064116 	 11.647000 	
3.070369 	 11.667000 	
3.076343 	 11.691000 	
3.082341 	 11.711000 	
3.089024 	 11.731000 	
3.094449 	 11.755000 	
3.101119 	 11.778000 	
3.106577 	 11.798000 	
3.113004 	 11.817000 	
3.118638 	 11.840000 	
3.125208 	 11.864000 	
3.130975 	 11.884000 	
3.137395 	 11.904000 	
3.143445 	 11.927000 	
3.148874 	 11.947000 	
3.155275 	 11.970000 	
3.160803 	 11.990000 	
3.167556 	 12.013000 	
3.173556 	 12.032000 	
3.178940 	 12.056000 	
3.185717 	 12.076000 	
3.191191 	 12.099000 	
3.197097 	 12.119000 	
3.203368 	 12.143000 	
3.209406 	 12.163000 	
3.215222 	 12.186000 	
3.221977 	 12.206000 	
3.227874 	 12.226000 	
3.233485 	 12.249000 	
3.239811 	 12.272000 	
3.245954 	 12.292000 	
3.251455 	 12.311000 	
3.257577 	 12.335000 	
3.264139 	 12.354000 	
3.270357 	 12.374000 	
3.275842 	 12.397000 	
3.281867 	 12.417000 	
3.288018 	 12.440000 	
3.294307 	 12.460000 	
3.300562 	 12.484000 	
3.306050 	 12.503000 	
3.311926 	 12.527000 	
3.317969 	 12.547000 	
3.324250 	 12.571000 	
3.330084 	 12.591000 	
3.336775 	 12.611000 	
3.342200 	 12.635000 	
3.348481 	 12.659000 	
3.354687 	 12.679000 	
3.360733 	 12.698000 	
3.366946 	 12.722000 	
3.372544 	 12.741000 	
3.378314 	 12.765000 	
3.384989 	 12.784000 	
3.390396 	 12.807000 	
3.396611 	 12.826000 	
3.403145 	 12.849000 	
3.408907 	 12.869000 	
3.415425 	 12.892000 	
3.421022 	 12.911000 	
3.427289 	 12.934000 	
3.433484 	 12.953000 	
3.439396 	 12.973000 	
3.445349 	 12.997000 	
3.451597 	 13.018000 	
3.457184 	 13.042000 	
3.463369 	 13.063000 	
3.469083 	 13.087000 	
3.475627 	 13.107000 	
3.481247 	 13.131000 	
3.487215 	 13.151000 	
3.493872 	 13.170000 	
3.499739 	 13.193000 	
3.505189 	 13.216000 	
3.511545 	 13.236000 	
3.517511 	 13.255000 	
3.523730 	 13.279000 	
3.529545 	 13.298000 	
3.536137 	 13.321000 	
3.542134 	 13.341000 	
3.547575 	 13.364000 	
3.553568 	 13.383000 	
3.560444 	 13.403000 	
3.566106 	 13.426000 	
3.572501 	 13.449000 	
3.578245 	 13.469000 	
3.583650 	 13.489000 	
3.590428 	 13.513000 	
3.596465 	 13.532000 	
3.601778 	 13.556000 	
3.608588 	 13.576000 	
3.614226 	 13.600000 	
3.620413 	 13.619000 	
3.626215 	 13.638000 	
3.632725 	 13.661000 	
3.638698 	 13.685000 	
3.644240 	 13.704000 	
3.650224 	 13.723000 	
3.656296 	 13.747000 	
3.662340 	 13.770000 	
3.668798 	 13.790000 	
3.674434 	 13.810000 	
3.681066 	 13.833000 	
3.687365 	 13.852000 	
3.692621 	 13.875000 	
3.699024 	 13.894000 	
3.704553 	 13.917000 	
3.710926 	 13.937000 	
3.716789 	 13.961000 	
3.723433 	 13.980000 	
3.728793 	 14.004000 	
3.735041 	 14.024000 	
3.741259 	 14.043000 	
3.747206 	 14.067000 	
3.753534 	 14.086000 	
3.759523 	 14.109000 	
3.764993 	 14.128000 	
3.771123 	 14.151000 	
3.777619 	 14.171000 	
3.783883 	 14.194000 	
3.789351 	 14.214000 	
3.795750 	 14.237000 	
3.801925 	 14.256000 	
3.807370 	 14.280000 	
3.813079 	 14.299000 	
3.820135 	 14.322000 	
3.826061 	 14.341000 	
3.832009 	 14.364000 	
3.837696 	 14.384000 	
3.843813 	 14.404000 	
3.849571 	 14.427000 	
3.855521 	 14.451000 	
3.861894 	 14.471000 	
3.867524 	 14.490000 	
3.873427 	 14.514000 	
3.879627 	 14.537000 	
3.885936 	 14.557000 	
3.891670 	 14.576000 	
3.898316 	 14.599000 	
3.903965 	 14.618000 	
3.909770 	 14.641000 	
3.915932 	 14.661000 	
3.922107 	 14.684000 	
3.928404 	 14.704000 	
3.934178 	 14.727000 	
3.939802 	 14.746000 	
3.945878 	 14.769000 	
3.952122 	 14.788000 	
3.957875 	 14.811000 	
3.964439 	 14.830000 	
3.970144 	 14.853000 	
3.976166 	 14.873000 	
3.982094 	 14.893000 	
3.988571 	 14.917000 	
3.994111 	 14.941000 	
4.000823 	 14.961000 	
4.006861 	 14.981000 	
4.012478 	 15.005000 	
4.018297 	 15.024000 	
4.024897 	 15.047000 	
4.030271 	 15.066000 	
4.036437 	 15.089000 	
4.042937 	 15.109000 	
4.048773 	 15.129000 	
4.055035 	 15.152000 	
4.060452 	 15.175000 	
4.066828 	 15.195000 	
4.072895 	 15.214000 	
4.079102 	 15.237000 	
4.085027 	 15.256000 	
4.090590 	 15.279000 	
4.096736 	 15.298000 	
4.102485 	 15.322000 	
4.108763 	 15.341000 	
4.114550 	 15.365000 	
4.121201 	 15.384000 	
4.126803 	 15.408000 	
4.133149 	 15.428000 	
4.139245 	 15.451000 	
4.145391 	 15.471000 	
4.151171 	 15.490000 	
4.156881 	 15.513000 	
4.163137 	 15.535000 	
4.168891 	 15.555000 	
4.175443 	 15.574000 	
4.181226 	 15.597000 	
4.187019 	 15.617000 	
4.192886 	 15.640000 	
4.199259 	 15.660000 	
4.205032 	 15.683000 	
4.210885 	 15.702000 	
4.217573 	 15.721000 	
4.223740 	 15.744000 	
4.228918 	 15.767000 	
4.235610 	 15.786000 	
4.241269 	 15.806000 	
4.247135 	 15.829000 	
4.253595 	 15.849000 	
4.259368 	 15.872000 	
4.265334 	 15.892000 	
4.271522 	 15.915000 	
4.277575 	 15.934000 	
4.283379 	 15.953000 	
4.289679 	 15.976000 	
4.295781 	 15.995000 	
4.301618 	 16.018000 	
4.307384 	 16.037000 	
4.313776 	 16.061000 	
4.319836 	 16.080000 	
4.325284 	 16.104000 	
4.331711 	 16.123000 	
4.337379 	 16.146000 	
4.343174 	 16.165000 	
4.350076 	 16.188000 	
4.355353 	 16.207000 	
4.361392 	 16.230000 	
4.367786 	 16.249000 	
4.373710 	 16.269000 	
4.379643 	 16.293000 	
4.385896 	 16.313000 	
4.391172 	 16.337000 	
4.397492 	 16.357000 	
4.404099 	 16.380000 	
4.409909 	 16.400000 	
4.415537 	 16.422000 	
4.421952 	 16.442000 	
4.427670 	 16.461000 	
4.433888 	 16.484000 	
4.439427 	 16.504000 	
4.446210 	 16.528000 	
4.451497 	 16.547000 	
4.457342 	 16.571000 	
4.463567 	 16.590000 	
4.469910 	 16.613000 	
4.475591 	 16.632000 	
4.481988 	 16.655000 	
4.487519 	 16.674000 	
4.494094 	 16.697000 	
4.499401 	 16.716000 	
4.505548 	 16.739000 	
4.511924 	 16.759000 	
4.517527 	 16.782000 	
4.523976 	 16.801000 	
4.529535 	 16.821000 	
4.535463 	 16.844000 	
4.541881 	 16.868000 	
4.548164 	 16.887000 	
4.553478 	 16.906000 	
4.559653 	 16.928000 	
4.565784 	 16.950000 	
4.571472 	 16.970000 	
4.577944 	 16.989000 	
4.583424 	 17.012000 	
4.590121 	 17.032000 	
4.595333 	 17.055000 	
4.601944 	 17.074000 	
4.608008 	 17.097000 	
4.613282 	 17.116000 	
4.620242 	 17.135000 	
4.625675 	 17.159000 	
4.631222 	 17.179000 	
4.637459 	 17.203000 	
4.644003 	 17.222000 	
4.649987 	 17.245000 	
4.655646 	 17.264000 	
4.662053 	 17.287000 	
4.667971 	 17.306000 	
4.673431 	 17.329000 	
4.679646 	 17.348000 	
4.685648 	 17.371000 	
4.691911 	 17.390000 	
4.697808 	 17.413000 	
4.703500 	 17.432000 	
4.709822 	 17.451000 	
4.716178 	 17.474000 	
4.721727 	 17.497000 	
4.727443 	 17.516000 	
4.733879 	 17.535000 	
4.739330 	 17.557000 	
4.745566 	 17.576000 	
4.751451 	 17.599000 	
4.757307 	 17.619000 	
4.763328 	 17.639000 	
4.769463 	 17.662000 	
4.775488 	 17.686000 	
4.781636 	 17.705000 	
4.787651 	 17.725000 	
4.793480 	 17.748000 	
4.799169 	 17.767000 	
4.805183 	 17.790000 	
4.811179 	 17.813000 	
4.817232 	 17.832000 	
4.823562 	 17.850000 	
4.828991 	 17.873000 	
4.835336 	 17.892000 	
4.841457 	 17.916000 	
4.847394 	 17.935000 	
4.853465 	 17.958000 	
4.858790 	 17.981000 	
4.865491 	 18.000000 	
4.871025 	 18.018000 	
4.877194 	 18.040000 	
4.883293 	 18.059000 	
4.888729 	 18.082000 	
4.895302 	 18.101000 	
4.901028 	 18.125000 	
4.907192 	 18.144000 	
4.912599 	 18.168000 	
4.918422 	 18.188000 	
4.924630 	 18.211000 	
4.930944 	 18.230000 	
4.936708 	 18.253000 	
4.942787 	 18.276000 	
4.948937 	 18.295000 	
4.954404 	 18.314000 	
4.960801 	 18.337000 	
4.966252 	 18.356000 	
4.972753 	 18.379000 	
4.978751 	 18.399000 	
4.984148 	 18.422000 	
4.990400 	 18.441000 	
4.996117 	 18.464000 	
5.002504 	 18.483000 	
5.008472 	 18.505000 	
5.014319 	 18.524000 	
5.020441 	 18.546000 	
5.026599 	 18.565000 	
5.031800 	 18.588000 	
5.038077 	 18.609000 	
5.043783 	 18.632000 	
5.050503 	 18.652000 	
5.056153 	 18.674000 	
5.061601 	 18.693000 	
5.067903 	 18.715000 	
5.074367 	 18.734000 	
5.079598 	 18.757000 	
5.086070 	 18.776000 	
5.092311 	 18.795000 	
5.097921 	 18.818000 	
5.104080 	 18.841000 	
5.109607 	 18.860000 	
5.116174 	 18.883000 	
5.121837 	 18.903000 	
5.127524 	 18.926000 	
5.134047 	 18.945000 	
5.139817 	 18.968000 	
5.145267 	 18.986000 	
5.151979 	 19.005000 	
5.157670 	 19.028000 	
5.163316 	 19.048000 	
5.169802 	 19.071000 	
5.175304 	 19.091000 	
5.181575 	 19.115000 	
5.187790 	 19.135000 	
5.193530 	 19.158000 	
5.199607 	 19.177000 	
5.205635 	 19.199000 	
5.211921 	 19.218000 	
5.217332 	 19.237000 	
5.223191 	 19.260000 	
5.229622 	 19.279000 	
5.235093 	 19.302000 	
5.241256 	 19.322000 	
5.247136 	 19.345000 	
5.253431 	 19.364000 	
5.259548 	 19.383000 	
5.264881 	 19.406000 	
5.271443 	 19.428000 	
5.276814 	 19.447000 	
5.283277 	 19.466000 	
5.288701 	 19.489000 	
5.294955 	 19.508000 	
5.300572 	 19.532000 	
5.307130 	 19.552000 	
5.313047 	 19.575000 	
5.318541 	 19.595000 	
5.324932 	 19.615000 	
5.331024 	 19.638000 	
5.336956 	 19.657000 	
5.342554 	 19.680000 	
5.348445 	 19.699000 	
5.355039 	 19.723000 	
5.360532 	 19.742000 	
5.366404 	 19.765000 	
5.372771 	 19.784000 	
5.378588 	 19.803000 	
5.384663 	 19.826000 	
5.390982 	 19.849000 	
5.396928 	 19.868000 	
5.402360 	 19.887000 	
5.408783 	 19.910000 	
5.414243 	 19.929000 	
5.420606 	 19.952000 	
5.426717 	 19.971000 	
5.432185 	 19.994000 	
5.438820 	 20.014000 	
5.444529 	 20.033000 	
5.450259 	 20.057000 	
5.456221 	 20.080000 	
5.462420 	 20.100000 	
5.468166 	 20.122000 	
5.474327 	 20.141000 	
5.480491 	 20.160000 	
5.486214 	 20.182000 	
5.492072 	 20.202000 	
5.498188 	 20.225000 	
5.504534 	 20.244000 	
5.510352 	 20.268000 	
5.516438 	 20.287000 	
5.522702 	 20.310000 	
5.528568 	 20.328000 	
5.534139 	 20.351000 	
5.540101 	 20.369000 	
5.546098 	 20.392000 	
5.552100 	 20.411000 	
5.557801 	 20.435000 	
5.564542 	 20.455000 	
5.570274 	 20.475000 	
5.575966 	 20.499000 	
5.582617 	 20.522000 	
5.588543 	 20.541000 	
5.594051 	 20.560000 	
5.600587 	 20.583000 	
5.606563 	 20.605000 	
5.612697 	 20.624000 	
5.618262 	 20.643000 	
5.624466 	 20.667000 	
5.630619 	 20.690000 	
5.636091 	 20.709000 	
5.642211 	 20.728000 	
5.648623 	 20.751000 	
5.654128 	 20.769000 	
5.660674 	 20.792000 	
5.666513 	 20.811000 	
5.672220 	 20.834000 	
5.678137 	 20.853000 	
5.684623 	 20.876000 	
5.690676 	 20.895000 	
5.696071 	 20.918000 	
5.702232 	 20.938000 	
5.708662 	 20.961000 	
5.714677 	 20.981000 	
5.720436 	 21.003000 	
5.726203 	 21.022000 	
5.732157 	 21.041000 	
5.738521 	 21.064000 	
5.744298 	 21.086000 	
5.750615 	 21.105000 	
5.756345 	 21.124000 	
5.762628 	 21.147000 	
5.768390 	 21.167000 	
5.774516 	 21.191000 	
5.780656 	 21.210000 	
5.786219 	 21.233000 	
5.792952 	 21.252000 	
5.798373 	 21.270000 	
5.804693 	 21.292000 	
5.810419 	 21.315000 	
5.816127 	 21.334000 	
5.822993 	 21.354000 	
5.828471 	 21.377000 	
5.834358 	 21.397000 	
5.840512 	 21.420000 	
5.846685 	 21.440000 	
5.852232 	 21.463000 	
5.858400 	 21.481000 	
5.864492 	 21.504000 	
5.870408 	 21.522000 	
5.876386 	 21.545000 	
5.882373 	 21.564000 	
5.888692 	 21.587000 	
5.894822 	 21.606000 	
5.900440 	 21.625000 	
5.906518 	 21.648000 	
5.912677 	 21.670000 	
5.918329 	 21.688000 	
5.925048 	 21.707000 	
5.931062 	 21.730000 	
5.936427 	 21.749000 	
5.943040 	 21.772000 	
5.948935 	 21.792000 	
5.954811 	 21.815000 	
5.960970 	 21.834000 	
5.966384 	 21.858000 	
5.972635 	 21.878000 	
5.978494 	 21.901000 	
5.984943 	 21.921000 	
5.990853 	 21.940000 	
5.996482 	 21.963000 	
6.002856 	 21.985000 	
6.009170 	 22.004000 	
6.014687 	 22.023000 	
6.021224 	 22.045000 	
6.026662 	 22.068000 	
X-FIT SetVoltage(V) vs Field(mT)
-10.000000 	 -11.205000 	
-9.797980 	 -11.011994 	
-9.595960 	 -10.786103 	
-9.393939 	 -10.558051 	
-9.191919 	 -10.330684 	
-8.989899 	 -10.105446 	
-8.787879 	 -9.880291 	
-8.585859 	 -9.652596 	
-8.383838 	 -9.424120 	
-8.181818 	 -9.199899 	
-7.979798 	 -8.972945 	
-7.777778 	 -8.748686 	
-7.575758 	 -8.520802 	
-7.373737 	 -8.293077 	
-7.171717 	 -8.064934 	
-6.969697 	 -7.841322 	
-6.767677 	 -7.613176 	
-6.565657 	 -7.385685 	
-6.363636 	 -7.156425 	
-6.161616 	 -6.929773 	
-5.959596 	 -6.702767 	
-5.757576 	 -6.477666 	
-5.555556 	 -6.249383 	
-5.353535 	 -6.023687 	
-5.151515 	 -5.794035 	
-4.949495 	 -5.571137 	
-4.747475 	 -5.342116 	
-4.545455 	 -5.115023 	
-4.343434 	 -4.887546 	
-4.141414 	 -4.661331 	
-3.939394 	 -4.435645 	
-3.737374 	 -4.210545 	
-3.535354 	 -3.984320 	
-3.333333 	 -3.755570 	
-3.131313 	 -3.546810 	
-2.929293 	 -3.318908 	
-2.727273 	 -3.092056 	
-2.525253 	 -2.864924 	
-2.323232 	 -2.637993 	
-2.121212 	 -2.412190 	
-1.919192 	 -2.186168 	
-1.717172 	 -1.958484 	
-1.515152 	 -1.733348 	
-1.313131 	 -1.507451 	
-1.111111 	 -1.280697 	
-0.909091 	 -1.053295 	
-0.707071 	 -0.826934 	
-0.505051 	 -0.599757 	
-0.303030 	 -0.373791 	
-0.101010 	 -0.146254 	
0.101010 	 0.081533 	
0.303030 	 0.311805 	
0.505051 	 0.538778 	
0.707071 	 0.765958 	
0.909091 	 0.991560 	
1.111111 	 1.218038 	
1.313131 	 1.445818 	
1.515152 	 1.671324 	
1.717172 	 1.899475 	
1.919192 	 2.124239 	
2.121212 	 2.350607 	
2.323232 	 2.579337 	
2.525253 	 2.804818 	
2.727273 	 3.032032 	
2.929293 	 3.257348 	
3.131313 	 3.486758 	
3.333333 	 3.712838 	
3.535354 	 3.922450 	
3.737374 	 4.149545 	
3.939394 	 4.379606 	
4.141414 	 4.605256 	
4.343434 	 4.831342 	
4.545455 	 5.058077 	
4.747475 	 5.285110 	
4.949495 	 5.511443 	
5.151515 	 5.742043 	
5.353535 	 5.966950 	
5.555556 	 6.194574 	
5.757576 	 6.421653 	
5.959596 	 6.649736 	
6.161616 	 6.874921 	
6.363636 	 7.102537 	
6.565657 	 7.328234 	
6.767677 	 7.556219 	
6.969697 	 7.786322 	
7.171717 	 8.012716 	
7.373737 	 8.240163 	
7.575758 	 8.465563 	
7.777778 	 8.693686 	
7.979798 	 8.920919 	
8.181818 	 9.147329 	
8.383838 	 9.376632 	
8.585859 	 9.599474 	
8.787879 	 9.827411 	
8.989899 	 10.055451 	
9.191919 	 10.280858 	
9.393939 	 10.509072 	
9.595960 	 10.736103 	
9.797980 	 10.964747 	
10.000000 	 11.191000 	
X-FIT Current(A) vs Field(mT)
-4.012483 	 -11.205000 	
-3.931227 	 -11.011878 	
-3.849972 	 -10.786170 	
-3.768717 	 -10.558089 	
-3.687462 	 -10.330034 	
-3.606207 	 -10.104252 	
-3.524951 	 -9.879327 	
-3.443696 	 -9.651296 	
-3.362441 	 -9.423650 	
-3.281186 	 -9.199308 	
-3.199931 	 -8.971715 	
-3.118676 	 -8.748320 	
-3.037420 	 -8.520971 	
-2.956165 	 -8.293419 	
-2.874910 	 -8.064301 	
-2.793655 	 -7.840582 	
-2.712400 	 -7.613716 	
-2.631144 	 -7.385229 	
-2.549889 	 -7.157146 	
-2.468634 	 -6.929005 	
-2.387379 	 -6.701415 	
-2.306124 	 -6.477040 	
-2.224869 	 -6.248875 	
-2.143613 	 -6.023471 	
-2.062358 	 -5.793586 	
-1.981103 	 -5.571141 	
-1.899848 	 -5.341737 	
-1.818593 	 -5.114087 	
-1.737337 	 -4.887020 	
-1.656082 	 -4.660547 	
-1.574827 	 -4.435146 	
-1.493572 	 -4.208739 	
-1.412317 	 -3.983862 	
-1.331061 	 -3.755352 	
-1.249806 	 -3.546015 	
-1.168551 	 -3.318194 	
-1.087296 	 -3.090387 	
-1.006041 	 -2.863901 	
-0.924786 	 -2.636743 	
-0.843530 	 -2.411590 	
-0.762275 	 -2.185061 	
-0.681020 	 -1.957609 	
-0.599765 	 -1.731659 	
-0.518510 	 -1.505559 	
-0.437254 	 -1.279298 	
-0.355999 	 -1.051913 	
-0.274744 	 -0.825837 	
-0.193489 	 -0.598542 	
-0.112234 	 -0.373219 	
-0.030978 	 -0.145121 	
0.050277 	 0.082864 	
0.131532 	 0.312949 	
0.212787 	 0.539665 	
0.294042 	 0.768776 	
0.375297 	 0.993456 	
0.456553 	 1.220070 	
0.537808 	 1.447306 	
0.619063 	 1.673527 	
0.700318 	 1.901727 	
0.781573 	 2.127053 	
0.862829 	 2.353785 	
0.944084 	 2.583143 	
1.025339 	 2.808379 	
1.106594 	 3.035007 	
1.187849 	 3.261520 	
1.269104 	 3.490041 	
1.350360 	 3.716523 	
1.431615 	 3.925629 	
1.512870 	 4.152186 	
1.594125 	 4.381524 	
1.675380 	 4.608799 	
1.756636 	 4.834403 	
1.837891 	 5.061115 	
1.919146 	 5.288210 	
2.000401 	 5.514212 	
2.081656 	 5.744197 	
2.162912 	 5.969365 	
2.244167 	 6.196976 	
2.325422 	 6.424763 	
2.406677 	 6.652367 	
2.487932 	 6.877572 	
2.569187 	 7.105087 	
2.650443 	 7.331732 	
2.731698 	 7.559062 	
2.812953 	 7.788436 	
2.894208 	 8.014391 	
2.975463 	 8.241584 	
3.056719 	 8.468358 	
3.137974 	 8.696737 	
3.219229 	 8.923611 	
3.300484 	 9.150288 	
3.381739 	 9.377692 	
3.462994 	 9.601410 	
3.544250 	 9.829316 	
3.625505 	 10.056668 	
3.706760 	 10.282814 	
3.788015 	 10.510281 	
3.869270 	 10.737027 	
3.950526 	 10.967275 	
4.031781 	 11.191000 	
Y-FIT SetVoltage(V) vs Field(mT)
-10.000000 	 -19.736268 	
-9.797980 	 -21.780164 	
-9.595960 	 -21.339260 	
-9.393939 	 -20.919740 	
-9.191919 	 -20.497957 	
-8.989899 	 -20.074791 	
-8.787879 	 -19.651711 	
-8.585859 	 -19.231912 	
-8.383838 	 -18.811122 	
-8.181818 	 -18.385368 	
-7.979798 	 -17.957678 	
-7.777778 	 -17.533767 	
-7.575758 	 -17.111213 	
-7.373737 	 -16.688414 	
-7.171717 	 -16.262073 	
-6.969697 	 -15.834658 	
-6.767677 	 -15.408500 	
-6.565657 	 -14.979844 	
-6.363636 	 -14.548516 	
-6.161616 	 -14.119164 	
-5.959596 	 -13.693439 	
-5.757576 	 -13.260325 	
-5.555556 	 -12.827797 	
-5.353535 	 -12.395722 	
-5.151515 	 -11.959949 	
-4.949495 	 -11.526987 	
-4.747475 	 -11.091202 	
-4.545455 	 -10.656788 	
-4.343434 	 -10.214418 	
-4.141414 	 -9.774121 	
-3.939394 	 -9.329882 	
-3.737374 	 -8.879269 	
-3.535354 	 -8.421978 	
-3.333333 	 -7.964865 	
-3.131313 	 -7.498754 	
-2.929293 	 -7.030839 	
-2.727273 	 -6.562895 	
-2.525253 	 -6.095680 	
-2.323232 	 -5.621600 	
-2.121212 	 -5.148010 	
-1.919192 	 -4.665422 	
-1.717172 	 -4.187139 	
-1.515152 	 -3.701545 	
-1.313131 	 -3.237293 	
-1.111111 	 -2.751425 	
-0.909091 	 -2.269270 	
-0.707071 	 -1.783733 	
-0.505051 	 -1.300528 	
-0.303030 	 -0.812157 	
-0.101010 	 -0.329330 	
0.101010 	 0.161133 	
0.303030 	 0.649038 	
0.505051 	 1.138521 	
0.707071 	 1.623379 	
0.909091 	 2.110374 	
1.111111 	 2.593423 	
1.313131 	 3.079721 	
1.515152 	 3.563565 	
1.717172 	 4.031084 	
1.919192 	 4.512466 	
2.121212 	 4.990338 	
2.323232 	 5.468398 	
2.525253 	 5.945574 	
2.727273 	 6.414932 	
2.929293 	 6.879835 	
3.131313 	 7.350383 	
3.333333 	 7.814139 	
3.535354 	 8.275978 	
3.737374 	 8.736106 	
3.939394 	 9.188693 	
4.141414 	 9.635940 	
4.343434 	 10.077418 	
4.545455 	 10.515180 	
4.747475 	 10.956221 	
4.949495 	 11.391215 	
5.151515 	 11.825698 	
5.353535 	 12.262703 	
5.555556 	 12.693499 	
5.757576 	 13.130333 	
5.959596 	 13.559399 	
6.161616 	 13.988249 	
6.363636 	 14.416298 	
6.565657 	 14.847077 	
6.767677 	 15.277497 	
6.969697 	 15.704280 	
7.171717 	 16.130026 	
7.373737 	 16.559128 	
7.575758 	 16.983007 	
7.777778 	 17.410613 	
7.979798 	 17.833475 	
8.181818 	 18.259391 	
8.383838 	 18.682853 	
8.585859 	 19.106912 	
8.787879 	 19.528547 	
8.989899 	 19.952832 	
9.191919 	 20.374050 	
9.393939 	 20.800128 	
9.595960 	 21.224292 	
9.797980 	 21.643585 	
10.000000 	 22.068000 	
Y-FIT Current(A) vs Field(mT)
-5.885682 	 -21.698000 	
-5.765356 	 -21.284760 	
-5.645029 	 -20.871187 	
-5.524702 	 -20.451539 	
-5.404376 	 -20.031926 	
-5.284049 	 -19.610805 	
-5.163722 	 -19.194935 	
-5.043395 	 -18.774092 	
-4.923069 	 -18.353627 	
-4.802742 	 -17.933417 	
-4.682415 	 -17.513047 	
-4.562089 	 -17.090260 	
-4.441762 	 -16.669478 	
-4.321435 	 -16.248061 	
-4.201108 	 -15.824240 	
-4.080782 	 -15.400923 	
-3.960455 	 -14.976692 	
-3.840128 	 -14.547590 	
-3.719802 	 -14.123158 	
-3.599475 	 -13.701460 	
-3.479148 	 -13.273988 	
-3.358821 	 -12.843924 	
-3.238495 	 -12.417827 	
-3.118168 	 -11.987382 	
-2.997841 	 -11.561430 	
-2.877515 	 -11.130100 	
-2.757188 	 -10.700913 	
-2.636861 	 -10.263408 	
-2.516535 	 -9.832177 	
-2.396208 	 -9.394004 	
-2.275881 	 -8.943830 	
-2.155554 	 -8.498768 	
-2.035228 	 -8.045860 	
-1.914901 	 -7.588933 	
-1.794574 	 -7.125560 	
-1.674248 	 -6.663559 	
-1.553921 	 -6.205720 	
-1.433594 	 -5.742493 	
-1.313267 	 -5.273588 	
-1.192941 	 -4.802768 	
-1.072614 	 -4.323731 	
-0.952287 	 -3.855168 	
-0.831961 	 -3.394631 	
-0.711634 	 -2.917558 	
-0.591307 	 -2.437151 	
-0.470980 	 -1.959571 	
-0.350654 	 -1.483132 	
-0.230327 	 -1.005155 	
-0.110000 	 -0.527352 	
0.010326 	 -0.044026 	
0.130653 	 0.437186 	
0.250980 	 0.920512 	
0.371307 	 1.398117 	
0.491633 	 1.878348 	
0.611960 	 2.356156 	
0.732287 	 2.835005 	
0.852613 	 3.308748 	
0.972940 	 3.786974 	
1.093267 	 4.246663 	
1.213594 	 4.720465 	
1.333920 	 5.190379 	
1.454247 	 5.663248 	
1.574574 	 6.126121 	
1.694900 	 6.591747 	
1.815227 	 7.050394 	
1.935554 	 7.508117 	
2.055881 	 7.967398 	
2.176207 	 8.421098 	
2.296534 	 8.871442 	
2.416861 	 9.315420 	
2.537187 	 9.751391 	
2.657514 	 10.186511 	
2.777841 	 10.621046 	
2.898168 	 11.052811 	
3.018494 	 11.480956 	
3.138821 	 11.909126 	
3.259148 	 12.339904 	
3.379474 	 12.768640 	
3.499801 	 13.193253 	
3.620128 	 13.618105 	
3.740455 	 14.040289 	
3.860781 	 14.467482 	
3.981108 	 14.889562 	
4.101435 	 15.317981 	
4.221761 	 15.736099 	
4.342088 	 16.161479 	
4.462415 	 16.586362 	
4.582742 	 17.009441 	
4.703068 	 17.430631 	
4.823395 	 17.849433 	
4.943722 	 18.279075 	
5.064048 	 18.701716 	
5.184375 	 19.123999 	
5.304702 	 19.544531 	
5.425028 	 19.965409 	
5.545355 	 20.389324 	
5.665682 	 20.808096 	
5.786009 	 21.232274 	
5.906335 	 21.647327 	
6.026662 	 22.068000 	
